;Scopy version,f4beeb1
;Exported on,Wednesday May 15/05/2024
;Device,M2K
;Nr of samples,6400
;Sample rate,100000
;Tool,Oscilloscope
;Additional Information,
Sample,Time(S),CH1(V)
0,-0.032,12.1603
1,-0.03199,12.1436
2,-0.03198,12.177
3,-0.03197,12.1603
4,-0.03196,12.1937
5,-0.03195,12.177
6,-0.03194,12.2104
7,-0.03193,12.2104
8,-0.03192,12.2104
9,-0.03191,12.2271
10,-0.0319,12.2271
11,-0.03189,12.2438
12,-0.03188,12.2438
13,-0.03187,12.2605
14,-0.03186,12.2605
15,-0.03185,12.2772
16,-0.03184,12.2772
17,-0.03183,12.3106
18,-0.03182,12.3106
19,-0.03181,12.3273
20,-0.0318,12.3106
21,-0.03179,12.2104
22,-0.03178,12.7616
23,-0.03177,2.50556
24,-0.03176,-0.517815
25,-0.03175,-0.701556
26,-0.03174,-0.684853
27,-0.03173,-0.618038
28,-0.03172,-0.567927
29,-0.03171,-0.517815
30,-0.0317,-0.467704
31,-0.03169,-0.434297
32,-0.03168,-0.417593
33,-0.03167,-0.384186
34,-0.03166,-0.367482
35,-0.03165,-0.350778
36,-0.03164,-0.317371
37,-0.03163,-0.26726
38,-0.03162,-0.0668149
39,-0.03161,-0.0501112
40,-0.0316,-0.0668149
41,-0.03159,-0.0668149
42,-0.03158,-0.0668149
43,-0.03157,-0.0668149
44,-0.03156,-0.0668149
45,-0.03155,-0.0668149
46,-0.03154,-0.0668149
47,-0.03153,-0.0668149
48,-0.03152,-0.0668149
49,-0.03151,-0.0668149
50,-0.0315,-0.0668149
51,-0.03149,-0.0668149
52,-0.03148,-0.0668149
53,-0.03147,-0.0668149
54,-0.03146,-0.0668149
55,-0.03145,-0.0668149
56,-0.03144,-0.0668149
57,-0.03143,-0.0668149
58,-0.03142,-0.0668149
59,-0.03141,-0.0668149
60,-0.0314,-0.0668149
61,-0.03139,-0.0668149
62,-0.03138,-0.0668149
63,-0.03137,-0.0668149
64,-0.03136,-0.0668149
65,-0.03135,-0.0668149
66,-0.03134,-0.0668149
67,-0.03133,-0.0668149
68,-0.03132,-0.0668149
69,-0.03131,-0.0668149
70,-0.0313,-0.0668149
71,-0.03129,-0.0668149
72,-0.03128,-0.0668149
73,-0.03127,-0.0668149
74,-0.03126,-0.0668149
75,-0.03125,-0.0668149
76,-0.03124,-0.0668149
77,-0.03123,-0.0668149
78,-0.03122,-0.0668149
79,-0.03121,-0.0668149
80,-0.0312,-0.0501112
81,-0.03119,-0.0835186
82,-0.03118,-0.0668149
83,-0.03117,-0.0668149
84,-0.03116,-0.0668149
85,-0.03115,-0.0668149
86,-0.03114,-0.0668149
87,-0.03113,-0.0668149
88,-0.03112,-0.0668149
89,-0.03111,-0.0668149
90,-0.0311,-0.0668149
91,-0.03109,-0.0668149
92,-0.03108,-0.0668149
93,-0.03107,-0.0668149
94,-0.03106,-0.0668149
95,-0.03105,-0.0668149
96,-0.03104,-0.0668149
97,-0.03103,-0.0668149
98,-0.03102,-0.0668149
99,-0.03101,-0.0668149
100,-0.031,-0.0668149
101,-0.03099,-0.0668149
102,-0.03098,-0.0668149
103,-0.03097,-0.0668149
104,-0.03096,-0.0668149
105,-0.03095,-0.0668149
106,-0.03094,-0.0668149
107,-0.03093,-0.0668149
108,-0.03092,-0.0668149
109,-0.03091,-0.0668149
110,-0.0309,-0.0668149
111,-0.03089,-0.0668149
112,-0.03088,-0.0668149
113,-0.03087,-0.0668149
114,-0.03086,-0.0501112
115,-0.03085,-0.0835186
116,-0.03084,-0.0501112
117,-0.03083,-0.0668149
118,-0.03082,-0.0668149
119,-0.03081,-0.0668149
120,-0.0308,-0.0668149
121,-0.03079,-0.0668149
122,-0.03078,-0.0668149
123,-0.03077,-0.0668149
124,-0.03076,-0.0668149
125,-0.03075,-0.0668149
126,-0.03074,-0.0668149
127,-0.03073,-0.0668149
128,-0.03072,-0.0668149
129,-0.03071,-0.0668149
130,-0.0307,-0.0668149
131,-0.03069,-0.0668149
132,-0.03068,-0.0668149
133,-0.03067,-0.0668149
134,-0.03066,-0.0668149
135,-0.03065,-0.0668149
136,-0.03064,-0.0668149
137,-0.03063,-0.0668149
138,-0.03062,-0.0668149
139,-0.03061,-0.0668149
140,-0.0306,-0.0668149
141,-0.03059,-0.0668149
142,-0.03058,-0.0668149
143,-0.03057,-0.0668149
144,-0.03056,-0.0668149
145,-0.03055,-0.0668149
146,-0.03054,-0.0668149
147,-0.03053,-0.0668149
148,-0.03052,-0.0668149
149,-0.03051,-0.0501112
150,-0.0305,-0.0501112
151,-0.03049,-0.0501112
152,-0.03048,-0.0334074
153,-0.03047,-0.0334074
154,-0.03046,-0.0334074
155,-0.03045,-0.0334074
156,-0.03044,0.0167037
157,-0.03043,0.0334074
158,-0.03042,0.0334074
159,-0.03041,0.0501112
160,-0.0304,0.0501112
161,-0.03039,0.0835186
162,-0.03038,0.0668149
163,-0.03037,0.100222
164,-0.03036,0.100222
165,-0.03035,0.100222
166,-0.03034,0.13363
167,-0.03033,0.13363
168,-0.03032,0.13363
169,-0.03031,0.150333
170,-0.0303,0.150333
171,-0.03029,0.167037
172,-0.03028,0.167037
173,-0.03027,0.167037
174,-0.03026,0.183741
175,-0.03025,0.167037
176,-0.03024,0.200445
177,-0.03023,0.183741
178,-0.03022,0.217148
179,-0.03021,0.200445
180,-0.0302,0.250556
181,-0.03019,0.217148
182,-0.03018,0.26726
183,-0.03017,0.26726
184,-0.03016,0.283963
185,-0.03015,0.283963
186,-0.03014,0.283963
187,-0.03013,0.317371
188,-0.03012,0.300667
189,-0.03011,0.334074
190,-0.0301,0.317371
191,-0.03009,0.350778
192,-0.03008,0.350778
193,-0.03007,0.367482
194,-0.03006,0.367482
195,-0.03005,0.400889
196,-0.03004,0.384186
197,-0.03003,0.417593
198,-0.03002,0.417593
199,-0.03001,0.400889
200,-0.03,0.434297
201,-0.02999,0.417593
202,-0.02998,0.451
203,-0.02997,0.451
204,-0.02996,0.451
205,-0.02995,0.467704
206,-0.02994,0.467704
207,-0.02993,0.501112
208,-0.02992,0.501112
209,-0.02991,0.501112
210,-0.0299,0.534519
211,-0.02989,0.534519
212,-0.02988,0.551223
213,-0.02987,0.551223
214,-0.02986,0.567927
215,-0.02985,0.567927
216,-0.02984,0.58463
217,-0.02983,0.58463
218,-0.02982,0.601334
219,-0.02981,0.601334
220,-0.0298,0.618038
221,-0.02979,0.618038
222,-0.02978,0.634741
223,-0.02977,0.634741
224,-0.02976,0.634741
225,-0.02975,0.668149
226,-0.02974,0.651445
227,-0.02973,0.684853
228,-0.02972,0.668149
229,-0.02971,0.701556
230,-0.0297,0.684853
231,-0.02969,0.71826
232,-0.02968,0.701556
233,-0.02967,0.751667
234,-0.02966,0.71826
235,-0.02965,0.768371
236,-0.02964,0.751667
237,-0.02963,0.785075
238,-0.02962,0.785075
239,-0.02961,0.801779
240,-0.0296,0.801779
241,-0.02959,0.818482
242,-0.02958,0.818482
243,-0.02957,0.818482
244,-0.02956,0.85189
245,-0.02955,0.835186
246,-0.02954,0.868594
247,-0.02953,0.85189
248,-0.02952,0.885297
249,-0.02951,0.868594
250,-0.0295,0.902001
251,-0.02949,0.885297
252,-0.02948,0.918705
253,-0.02947,0.902001
254,-0.02946,0.935408
255,-0.02945,0.935408
256,-0.02944,0.952112
257,-0.02943,0.935408
258,-0.02942,0.98552
259,-0.02941,0.952112
260,-0.0294,1.00222
261,-0.02939,0.98552
262,-0.02938,1.01893
263,-0.02937,1.01893
264,-0.02936,1.01893
265,-0.02935,1.05233
266,-0.02934,1.03563
267,-0.02933,1.06904
268,-0.02932,1.05233
269,-0.02931,1.08574
270,-0.0293,1.06904
271,-0.02929,1.10245
272,-0.02928,1.10245
273,-0.02927,1.10245
274,-0.02926,1.10245
275,-0.02925,1.13585
276,-0.02924,1.11915
277,-0.02923,1.15256
278,-0.02922,1.15256
279,-0.02921,1.16926
280,-0.0292,1.15256
281,-0.02919,1.18596
282,-0.02918,1.18596
283,-0.02917,1.20267
284,-0.02916,1.18596
285,-0.02915,1.23608
286,-0.02914,1.20267
287,-0.02913,1.25278
288,-0.02912,1.25278
289,-0.02911,1.26948
290,-0.0291,1.26948
291,-0.02909,1.26948
292,-0.02908,1.30289
293,-0.02907,1.28619
294,-0.02906,1.31959
295,-0.02905,1.30289
296,-0.02904,1.3363
297,-0.02903,1.3363
298,-0.02902,1.353
299,-0.02901,1.353
300,-0.029,1.36971
301,-0.02899,1.36971
302,-0.02898,1.38641
303,-0.02897,1.38641
304,-0.02896,1.40311
305,-0.02895,1.40311
306,-0.02894,1.40311
307,-0.02893,1.41982
308,-0.02892,1.41982
309,-0.02891,1.43652
310,-0.0289,1.43652
311,-0.02889,1.45322
312,-0.02888,1.45322
313,-0.02887,1.48663
314,-0.02886,1.48663
315,-0.02885,1.50333
316,-0.02884,1.50333
317,-0.02883,1.50333
318,-0.02882,1.53674
319,-0.02881,1.53674
320,-0.0288,1.55345
321,-0.02879,1.55345
322,-0.02878,1.57015
323,-0.02877,1.57015
324,-0.02876,1.58685
325,-0.02875,1.58685
326,-0.02874,1.60356
327,-0.02873,1.60356
328,-0.02872,1.62026
329,-0.02871,1.62026
330,-0.0287,1.63696
331,-0.02869,1.63696
332,-0.02868,1.65367
333,-0.02867,1.65367
334,-0.02866,1.67037
335,-0.02865,1.67037
336,-0.02864,1.68708
337,-0.02863,1.68708
338,-0.02862,1.70378
339,-0.02861,1.70378
340,-0.0286,1.73719
341,-0.02859,1.73719
342,-0.02858,1.75389
343,-0.02857,1.75389
344,-0.02856,1.77059
345,-0.02855,1.77059
346,-0.02854,1.7873
347,-0.02853,1.804
348,-0.02852,1.804
349,-0.02851,1.804
350,-0.0285,1.82071
351,-0.02849,1.83741
352,-0.02848,1.83741
353,-0.02847,1.85411
354,-0.02846,1.85411
355,-0.02845,1.87082
356,-0.02844,1.87082
357,-0.02843,1.88752
358,-0.02842,1.90422
359,-0.02841,1.90422
360,-0.0284,1.90422
361,-0.02839,1.92093
362,-0.02838,1.92093
363,-0.02837,1.97104
364,-0.02836,1.97104
365,-0.02835,1.97104
366,-0.02834,1.97104
367,-0.02833,1.98774
368,-0.02832,1.98774
369,-0.02831,2.00445
370,-0.0283,2.00445
371,-0.02829,2.02115
372,-0.02828,2.02115
373,-0.02827,2.03785
374,-0.02826,2.03785
375,-0.02825,2.05456
376,-0.02824,2.05456
377,-0.02823,2.07126
378,-0.02822,2.08797
379,-0.02821,2.08797
380,-0.0282,2.12137
381,-0.02819,2.12137
382,-0.02818,2.12137
383,-0.02817,2.12137
384,-0.02816,2.13808
385,-0.02815,2.13808
386,-0.02814,2.13808
387,-0.02813,2.17148
388,-0.02812,2.17148
389,-0.02811,2.17148
390,-0.0281,2.18819
391,-0.02809,2.18819
392,-0.02808,2.2216
393,-0.02807,2.2216
394,-0.02806,2.2383
395,-0.02805,2.2383
396,-0.02804,2.255
397,-0.02803,2.255
398,-0.02802,2.27171
399,-0.02801,2.27171
400,-0.028,2.28841
401,-0.02799,2.28841
402,-0.02798,2.30511
403,-0.02797,2.30511
404,-0.02796,2.33852
405,-0.02795,2.32182
406,-0.02794,2.33852
407,-0.02793,2.33852
408,-0.02792,2.37193
409,-0.02791,2.35522
410,-0.0279,2.37193
411,-0.02789,2.37193
412,-0.02788,2.40534
413,-0.02787,2.38863
414,-0.02786,2.42204
415,-0.02785,2.42204
416,-0.02784,2.42204
417,-0.02783,2.42204
418,-0.02782,2.47215
419,-0.02781,2.43874
420,-0.0278,2.48885
421,-0.02779,2.47215
422,-0.02778,2.50556
423,-0.02777,2.48885
424,-0.02776,2.52226
425,-0.02775,2.50556
426,-0.02774,2.53897
427,-0.02773,2.52226
428,-0.02772,2.55567
429,-0.02771,2.53897
430,-0.0277,2.57237
431,-0.02769,2.55567
432,-0.02768,2.58908
433,-0.02767,2.57237
434,-0.02766,2.58908
435,-0.02765,2.58908
436,-0.02764,2.60578
437,-0.02763,2.60578
438,-0.02762,2.62248
439,-0.02761,2.62248
440,-0.0276,2.65589
441,-0.02759,2.63919
442,-0.02758,2.6726
443,-0.02757,2.6726
444,-0.02756,2.6726
445,-0.02755,2.6893
446,-0.02754,2.6893
447,-0.02753,2.6893
448,-0.02752,2.73941
449,-0.02751,2.72271
450,-0.0275,2.75611
451,-0.02749,2.73941
452,-0.02748,2.77282
453,-0.02747,2.75611
454,-0.02746,2.78952
455,-0.02745,2.77282
456,-0.02744,2.80623
457,-0.02743,2.78952
458,-0.02742,2.82293
459,-0.02741,2.80623
460,-0.0274,2.83963
461,-0.02739,2.82293
462,-0.02738,2.85634
463,-0.02737,2.85634
464,-0.02736,2.85634
465,-0.02735,2.85634
466,-0.02734,2.88974
467,-0.02733,2.88974
468,-0.02732,2.88974
469,-0.02731,2.90645
470,-0.0273,2.90645
471,-0.02729,2.92315
472,-0.02728,2.92315
473,-0.02727,2.97326
474,-0.02726,2.95656
475,-0.02725,2.97326
476,-0.02724,2.97326
477,-0.02723,2.97326
478,-0.02722,3.00667
479,-0.02721,2.98997
480,-0.0272,3.02337
481,-0.02719,3.00667
482,-0.02718,3.04008
483,-0.02717,3.02337
484,-0.02716,3.05678
485,-0.02715,3.05678
486,-0.02714,3.05678
487,-0.02713,3.07348
488,-0.02712,3.07348
489,-0.02711,3.09019
490,-0.0271,3.09019
491,-0.02709,3.1236
492,-0.02708,3.1236
493,-0.02707,3.1236
494,-0.02706,3.1403
495,-0.02705,3.1403
496,-0.02704,3.1403
497,-0.02703,3.17371
498,-0.02702,3.157
499,-0.02701,3.17371
500,-0.027,3.17371
501,-0.02699,3.20711
502,-0.02698,3.20711
503,-0.02697,3.22382
504,-0.02696,3.22382
505,-0.02695,3.24052
506,-0.02694,3.24052
507,-0.02693,3.25723
508,-0.02692,3.25723
509,-0.02691,3.27393
510,-0.0269,3.27393
511,-0.02689,3.29063
512,-0.02688,3.29063
513,-0.02687,3.30734
514,-0.02686,3.30734
515,-0.02685,3.34074
516,-0.02684,3.34074
517,-0.02683,3.34074
518,-0.02682,3.34074
519,-0.02681,3.37415
520,-0.0268,3.35745
521,-0.02679,3.39086
522,-0.02678,3.37415
523,-0.02677,3.40756
524,-0.02676,3.39086
525,-0.02675,3.42426
526,-0.02674,3.40756
527,-0.02673,3.45767
528,-0.02672,3.45767
529,-0.02671,3.45767
530,-0.0267,3.45767
531,-0.02669,3.49108
532,-0.02668,3.49108
533,-0.02667,3.49108
534,-0.02666,3.49108
535,-0.02665,3.50778
536,-0.02664,3.50778
537,-0.02663,3.50778
538,-0.02662,3.54119
539,-0.02661,3.54119
540,-0.0266,3.54119
541,-0.02659,3.55789
542,-0.02658,3.55789
543,-0.02657,3.5746
544,-0.02656,3.5746
545,-0.02655,3.5913
546,-0.02654,3.5913
547,-0.02653,3.608
548,-0.02652,3.608
549,-0.02651,3.62471
550,-0.0265,3.62471
551,-0.02649,3.65811
552,-0.02648,3.64141
553,-0.02647,3.67482
554,-0.02646,3.65811
555,-0.02645,3.70823
556,-0.02644,3.67482
557,-0.02643,3.72493
558,-0.02642,3.72493
559,-0.02641,3.72493
560,-0.0264,3.72493
561,-0.02639,3.75834
562,-0.02638,3.75834
563,-0.02637,3.75834
564,-0.02636,3.75834
565,-0.02635,3.79174
566,-0.02634,3.79174
567,-0.02633,3.79174
568,-0.02632,3.80845
569,-0.02631,3.80845
570,-0.0263,3.82515
571,-0.02629,3.82515
572,-0.02628,3.84186
573,-0.02627,3.84186
574,-0.02626,3.85856
575,-0.02625,3.85856
576,-0.02624,3.87526
577,-0.02623,3.87526
578,-0.02622,3.87526
579,-0.02621,3.90867
580,-0.0262,3.89197
581,-0.02619,3.94208
582,-0.02618,3.90867
583,-0.02617,3.95878
584,-0.02616,3.95878
585,-0.02615,3.95878
586,-0.02614,3.97549
587,-0.02613,3.97549
588,-0.02612,3.99219
589,-0.02611,3.99219
590,-0.0261,3.99219
591,-0.02609,3.99219
592,-0.02608,4.0256
593,-0.02607,4.0256
594,-0.02606,4.0256
595,-0.02605,4.059
596,-0.02604,4.059
597,-0.02603,4.059
598,-0.02602,4.09241
599,-0.02601,4.07571
600,-0.026,4.10912
601,-0.02599,4.10912
602,-0.02598,4.10912
603,-0.02597,4.12582
604,-0.02596,4.10912
605,-0.02595,4.14252
606,-0.02594,4.14252
607,-0.02593,4.14252
608,-0.02592,4.15923
609,-0.02591,4.15923
610,-0.0259,4.19263
611,-0.02589,4.19263
612,-0.02588,4.20934
613,-0.02587,4.20934
614,-0.02586,4.20934
615,-0.02585,4.24275
616,-0.02584,4.24275
617,-0.02583,4.24275
618,-0.02582,4.24275
619,-0.02581,4.27615
620,-0.0258,4.25945
621,-0.02579,4.29286
622,-0.02578,4.29286
623,-0.02577,4.30956
624,-0.02576,4.29286
625,-0.02575,4.32626
626,-0.02574,4.30956
627,-0.02573,4.34297
628,-0.02572,4.32626
629,-0.02571,4.35967
630,-0.0257,4.34297
631,-0.02569,4.37638
632,-0.02568,4.35967
633,-0.02567,4.39308
634,-0.02566,4.37638
635,-0.02565,4.40978
636,-0.02564,4.39308
637,-0.02563,4.44319
638,-0.02562,4.40978
639,-0.02561,4.45989
640,-0.0256,4.45989
641,-0.02559,4.45989
642,-0.02558,4.4766
643,-0.02557,4.4766
644,-0.02556,4.4933
645,-0.02555,4.4766
646,-0.02554,4.51
647,-0.02553,4.51
648,-0.02552,4.52671
649,-0.02551,4.52671
650,-0.0255,4.54341
651,-0.02549,4.54341
652,-0.02548,4.56012
653,-0.02547,4.56012
654,-0.02546,4.57682
655,-0.02545,4.57682
656,-0.02544,4.59352
657,-0.02543,4.57682
658,-0.02542,4.61023
659,-0.02541,4.61023
660,-0.0254,4.62693
661,-0.02539,4.61023
662,-0.02538,4.64363
663,-0.02537,4.62693
664,-0.02536,4.67704
665,-0.02535,4.67704
666,-0.02534,4.69375
667,-0.02533,4.69375
668,-0.02532,4.71045
669,-0.02531,4.71045
670,-0.0253,4.72715
671,-0.02529,4.71045
672,-0.02528,4.74386
673,-0.02527,4.72715
674,-0.02526,4.76056
675,-0.02525,4.74386
676,-0.02524,4.77726
677,-0.02523,4.77726
678,-0.02522,4.79397
679,-0.02521,4.79397
680,-0.0252,4.81067
681,-0.02519,4.79397
682,-0.02518,4.82738
683,-0.02517,4.82738
684,-0.02516,4.84408
685,-0.02515,4.84408
686,-0.02514,4.86078
687,-0.02513,4.86078
688,-0.02512,4.87749
689,-0.02511,4.86078
690,-0.0251,4.89419
691,-0.02509,4.89419
692,-0.02508,4.9276
693,-0.02507,4.9276
694,-0.02506,4.9443
695,-0.02505,4.9443
696,-0.02504,4.96101
697,-0.02503,4.9443
698,-0.02502,4.97771
699,-0.02501,4.97771
700,-0.025,4.97771
701,-0.02499,4.99441
702,-0.02498,4.99441
703,-0.02497,5.01112
704,-0.02496,5.01112
705,-0.02495,5.02782
706,-0.02494,5.02782
707,-0.02493,5.04452
708,-0.02492,5.04452
709,-0.02491,5.06123
710,-0.0249,5.06123
711,-0.02489,5.06123
712,-0.02488,5.09464
713,-0.02487,5.09464
714,-0.02486,5.09464
715,-0.02485,5.12804
716,-0.02484,5.12804
717,-0.02483,5.14475
718,-0.02482,5.14475
719,-0.02481,5.14475
720,-0.0248,5.17815
721,-0.02479,5.17815
722,-0.02478,5.19486
723,-0.02477,5.19486
724,-0.02476,5.21156
725,-0.02475,5.21156
726,-0.02474,5.22826
727,-0.02473,5.22826
728,-0.02472,5.22826
729,-0.02471,5.24497
730,-0.0247,5.24497
731,-0.02469,5.26167
732,-0.02468,5.26167
733,-0.02467,5.27838
734,-0.02466,5.27838
735,-0.02465,5.29508
736,-0.02464,5.29508
737,-0.02463,5.31178
738,-0.02462,5.31178
739,-0.02461,5.32849
740,-0.0246,5.32849
741,-0.02459,5.32849
742,-0.02458,5.36189
743,-0.02457,5.36189
744,-0.02456,5.36189
745,-0.02455,5.3786
746,-0.02454,5.3786
747,-0.02453,5.3953
748,-0.02452,5.3953
749,-0.02451,5.42871
750,-0.0245,5.42871
751,-0.02449,5.44541
752,-0.02448,5.44541
753,-0.02447,5.46212
754,-0.02446,5.46212
755,-0.02445,5.47882
756,-0.02444,5.47882
757,-0.02443,5.49552
758,-0.02442,5.49552
759,-0.02441,5.49552
760,-0.0244,5.51223
761,-0.02439,5.52893
762,-0.02438,5.52893
763,-0.02437,5.54564
764,-0.02436,5.54564
765,-0.02435,5.56234
766,-0.02434,5.56234
767,-0.02433,5.57904
768,-0.02432,5.57904
769,-0.02431,5.59575
770,-0.0243,5.59575
771,-0.02429,5.61245
772,-0.02428,5.61245
773,-0.02427,5.62915
774,-0.02426,5.62915
775,-0.02425,5.66256
776,-0.02424,5.66256
777,-0.02423,5.67927
778,-0.02422,5.67927
779,-0.02421,5.69597
780,-0.0242,5.69597
781,-0.02419,5.71267
782,-0.02418,5.71267
783,-0.02417,5.72938
784,-0.02416,5.72938
785,-0.02415,5.74608
786,-0.02414,5.74608
787,-0.02413,5.76278
788,-0.02412,5.76278
789,-0.02411,5.77949
790,-0.0241,5.77949
791,-0.02409,5.79619
792,-0.02408,5.79619
793,-0.02407,5.8129
794,-0.02406,5.8129
795,-0.02405,5.8296
796,-0.02404,5.8296
797,-0.02403,5.8463
798,-0.02402,5.8463
799,-0.02401,5.8463
800,-0.024,5.87971
801,-0.02399,5.87971
802,-0.02398,5.87971
803,-0.02397,5.91312
804,-0.02396,5.91312
805,-0.02395,5.92982
806,-0.02394,5.92982
807,-0.02393,5.94652
808,-0.02392,5.94652
809,-0.02391,5.96323
810,-0.0239,5.96323
811,-0.02389,5.97993
812,-0.02388,5.97993
813,-0.02387,5.97993
814,-0.02386,5.99664
815,-0.02385,5.99664
816,-0.02384,6.01334
817,-0.02383,6.01334
818,-0.02382,6.04675
819,-0.02381,6.03004
820,-0.0238,6.06345
821,-0.02379,6.04675
822,-0.02378,6.06345
823,-0.02377,6.09686
824,-0.02376,6.09686
825,-0.02375,6.09686
826,-0.02374,6.09686
827,-0.02373,6.13027
828,-0.02372,6.11356
829,-0.02371,6.11356
830,-0.0237,6.16367
831,-0.02369,6.13027
832,-0.02368,6.18038
833,-0.02367,6.16367
834,-0.02366,6.18038
835,-0.02365,6.18038
836,-0.02364,6.19708
837,-0.02363,6.19708
838,-0.02362,6.23049
839,-0.02361,6.21378
840,-0.0236,6.23049
841,-0.02359,6.23049
842,-0.02358,6.24719
843,-0.02357,6.24719
844,-0.02356,6.2639
845,-0.02355,6.2639
846,-0.02354,6.2806
847,-0.02353,6.2806
848,-0.02352,6.2973
849,-0.02351,6.2973
850,-0.0235,6.31401
851,-0.02349,6.31401
852,-0.02348,6.34741
853,-0.02347,6.33071
854,-0.02346,6.36412
855,-0.02345,6.34741
856,-0.02344,6.38082
857,-0.02343,6.36412
858,-0.02342,6.41423
859,-0.02341,6.41423
860,-0.0234,6.41423
861,-0.02339,6.41423
862,-0.02338,6.44764
863,-0.02337,6.43093
864,-0.02336,6.46434
865,-0.02335,6.44764
866,-0.02334,6.46434
867,-0.02333,6.46434
868,-0.02332,6.48104
869,-0.02331,6.48104
870,-0.0233,6.48104
871,-0.02329,6.51445
872,-0.02328,6.49775
873,-0.02327,6.53116
874,-0.02326,6.51445
875,-0.02325,6.53116
876,-0.02324,6.53116
877,-0.02323,6.54786
878,-0.02322,6.54786
879,-0.02321,6.56456
880,-0.0232,6.56456
881,-0.02319,6.58127
882,-0.02318,6.58127
883,-0.02317,6.61467
884,-0.02316,6.59797
885,-0.02315,6.61467
886,-0.02314,6.61467
887,-0.02313,6.66478
888,-0.02312,6.64808
889,-0.02311,6.68149
890,-0.0231,6.66478
891,-0.02309,6.68149
892,-0.02308,6.68149
893,-0.02307,6.69819
894,-0.02306,6.69819
895,-0.02305,6.7149
896,-0.02304,6.7149
897,-0.02303,6.7316
898,-0.02302,6.7316
899,-0.02301,6.7483
900,-0.023,6.7483
901,-0.02299,6.7483
902,-0.02298,6.78171
903,-0.02297,6.76501
904,-0.02296,6.79841
905,-0.02295,6.78171
906,-0.02294,6.81512
907,-0.02293,6.79841
908,-0.02292,6.83182
909,-0.02291,6.81512
910,-0.0229,6.84853
911,-0.02289,6.83182
912,-0.02288,6.86523
913,-0.02287,6.84853
914,-0.02286,6.89864
915,-0.02285,6.86523
916,-0.02284,6.91534
917,-0.02283,6.89864
918,-0.02282,6.93204
919,-0.02281,6.91534
920,-0.0228,6.94875
921,-0.02279,6.93204
922,-0.02278,6.94875
923,-0.02277,6.94875
924,-0.02276,6.96545
925,-0.02275,6.96545
926,-0.02274,6.98216
927,-0.02273,6.98216
928,-0.02272,6.99886
929,-0.02271,6.99886
930,-0.0227,7.01556
931,-0.02269,7.01556
932,-0.02268,7.03227
933,-0.02267,7.03227
934,-0.02266,7.04897
935,-0.02265,7.04897
936,-0.02264,7.06567
937,-0.02263,7.06567
938,-0.02262,7.09908
939,-0.02261,7.08238
940,-0.0226,7.11579
941,-0.02259,7.11579
942,-0.02258,7.11579
943,-0.02257,7.11579
944,-0.02256,7.1659
945,-0.02255,7.14919
946,-0.02254,7.1826
947,-0.02253,7.1659
948,-0.02252,7.1993
949,-0.02251,7.1993
950,-0.0225,7.1993
951,-0.02249,7.1993
952,-0.02248,7.21601
953,-0.02247,7.21601
954,-0.02246,7.23271
955,-0.02245,7.23271
956,-0.02244,7.24941
957,-0.02243,7.24941
958,-0.02242,7.24941
959,-0.02241,7.28282
960,-0.0224,7.26612
961,-0.02239,7.29953
962,-0.02238,7.28282
963,-0.02237,7.31623
964,-0.02236,7.29953
965,-0.02235,7.33293
966,-0.02234,7.31623
967,-0.02233,7.34964
968,-0.02232,7.33293
969,-0.02231,7.36634
970,-0.0223,7.36634
971,-0.02229,7.39975
972,-0.02228,7.39975
973,-0.02227,7.41645
974,-0.02226,7.41645
975,-0.02225,7.41645
976,-0.02224,7.43316
977,-0.02223,7.43316
978,-0.02222,7.44986
979,-0.02221,7.44986
980,-0.0222,7.46656
981,-0.02219,7.46656
982,-0.02218,7.48327
983,-0.02217,7.48327
984,-0.02216,7.49997
985,-0.02215,7.49997
986,-0.02214,7.51667
987,-0.02213,7.51667
988,-0.02212,7.51667
989,-0.02211,7.51667
990,-0.0221,7.55008
991,-0.02209,7.53338
992,-0.02208,7.56679
993,-0.02207,7.55008
994,-0.02206,7.58349
995,-0.02205,7.56679
996,-0.02204,7.60019
997,-0.02203,7.60019
998,-0.02202,7.60019
999,-0.02201,7.60019
1000,-0.022,7.6503
1001,-0.02199,7.6336
1002,-0.02198,7.66701
1003,-0.02197,7.66701
1004,-0.02196,7.66701
1005,-0.02195,7.68371
1006,-0.02194,7.68371
1007,-0.02193,7.70042
1008,-0.02192,7.70042
1009,-0.02191,7.71712
1010,-0.0219,7.71712
1011,-0.02189,7.73382
1012,-0.02188,7.73382
1013,-0.02187,7.75053
1014,-0.02186,7.75053
1015,-0.02185,7.76723
1016,-0.02184,7.76723
1017,-0.02183,7.76723
1018,-0.02182,7.80064
1019,-0.02181,7.78393
1020,-0.0218,7.81734
1021,-0.02179,7.81734
1022,-0.02178,7.81734
1023,-0.02177,7.83405
1024,-0.02176,7.83405
1025,-0.02175,7.85075
1026,-0.02174,7.85075
1027,-0.02173,7.88416
1028,-0.02172,7.85075
1029,-0.02171,7.90086
1030,-0.0217,7.88416
1031,-0.02169,7.91756
1032,-0.02168,7.90086
1033,-0.02167,7.93427
1034,-0.02166,7.91756
1035,-0.02165,7.95097
1036,-0.02164,7.95097
1037,-0.02163,7.95097
1038,-0.02162,7.96768
1039,-0.02161,7.96768
1040,-0.0216,7.98438
1041,-0.02159,7.96768
1042,-0.02158,8.00108
1043,-0.02157,7.98438
1044,-0.02156,8.01779
1045,-0.02155,8.00108
1046,-0.02154,8.03449
1047,-0.02153,8.03449
1048,-0.02152,8.05119
1049,-0.02151,8.0679
1050,-0.0215,8.0679
1051,-0.02149,8.0846
1052,-0.02148,8.0846
1053,-0.02147,8.10131
1054,-0.02146,8.0846
1055,-0.02145,8.13471
1056,-0.02144,8.13471
1057,-0.02143,8.13471
1058,-0.02142,8.15142
1059,-0.02141,8.13471
1060,-0.0214,8.16812
1061,-0.02139,8.15142
1062,-0.02138,8.18482
1063,-0.02137,8.18482
1064,-0.02136,8.18482
1065,-0.02135,8.18482
1066,-0.02134,8.21823
1067,-0.02133,8.20153
1068,-0.02132,8.23493
1069,-0.02131,8.21823
1070,-0.0213,8.25164
1071,-0.02129,8.23493
1072,-0.02128,8.26834
1073,-0.02127,8.26834
1074,-0.02126,8.28505
1075,-0.02125,8.26834
1076,-0.02124,8.30175
1077,-0.02123,8.28505
1078,-0.02122,8.31845
1079,-0.02121,8.30175
1080,-0.0212,8.33516
1081,-0.02119,8.31845
1082,-0.02118,8.36856
1083,-0.02117,8.36856
1084,-0.02116,8.36856
1085,-0.02115,8.38527
1086,-0.02114,8.38527
1087,-0.02113,8.40197
1088,-0.02112,8.40197
1089,-0.02111,8.41868
1090,-0.0211,8.41868
1091,-0.02109,8.43538
1092,-0.02108,8.43538
1093,-0.02107,8.45208
1094,-0.02106,8.45208
1095,-0.02105,8.46879
1096,-0.02104,8.45208
1097,-0.02103,8.48549
1098,-0.02102,8.48549
1099,-0.02101,8.48549
1100,-0.021,8.48549
1101,-0.02099,8.5189
1102,-0.02098,8.50219
1103,-0.02097,8.5356
1104,-0.02096,8.5189
1105,-0.02095,8.55231
1106,-0.02094,8.55231
1107,-0.02093,8.55231
1108,-0.02092,8.56901
1109,-0.02091,8.56901
1110,-0.0209,8.58571
1111,-0.02089,8.58571
1112,-0.02088,8.61912
1113,-0.02087,8.61912
1114,-0.02086,8.63582
1115,-0.02085,8.63582
1116,-0.02084,8.65253
1117,-0.02083,8.65253
1118,-0.02082,8.66923
1119,-0.02081,8.65253
1120,-0.0208,8.68594
1121,-0.02079,8.66923
1122,-0.02078,8.70264
1123,-0.02077,8.68594
1124,-0.02076,8.71934
1125,-0.02075,8.71934
1126,-0.02074,8.73605
1127,-0.02073,8.73605
1128,-0.02072,8.75275
1129,-0.02071,8.75275
1130,-0.0207,8.76945
1131,-0.02069,8.76945
1132,-0.02068,8.78616
1133,-0.02067,8.78616
1134,-0.02066,8.80286
1135,-0.02065,8.80286
1136,-0.02064,8.81956
1137,-0.02063,8.81956
1138,-0.02062,8.83627
1139,-0.02061,8.83627
1140,-0.0206,8.86968
1141,-0.02059,8.86968
1142,-0.02058,8.88638
1143,-0.02057,8.88638
1144,-0.02056,8.90308
1145,-0.02055,8.90308
1146,-0.02054,8.91979
1147,-0.02053,8.91979
1148,-0.02052,8.93649
1149,-0.02051,8.93649
1150,-0.0205,8.93649
1151,-0.02049,8.95319
1152,-0.02048,8.95319
1153,-0.02047,8.9699
1154,-0.02046,8.9699
1155,-0.02045,8.9699
1156,-0.02044,8.9866
1157,-0.02043,8.9866
1158,-0.02042,8.9866
1159,-0.02041,9.02001
1160,-0.0204,9.02001
1161,-0.02039,9.02001
1162,-0.02038,9.03671
1163,-0.02037,9.03671
1164,-0.02036,9.05342
1165,-0.02035,9.05342
1166,-0.02034,9.05342
1167,-0.02033,9.08682
1168,-0.02032,9.08682
1169,-0.02031,9.12023
1170,-0.0203,9.12023
1171,-0.02029,9.13694
1172,-0.02028,9.13694
1173,-0.02027,9.15364
1174,-0.02026,9.15364
1175,-0.02025,9.15364
1176,-0.02024,9.17034
1177,-0.02023,9.17034
1178,-0.02022,9.18705
1179,-0.02021,9.18705
1180,-0.0202,9.20375
1181,-0.02019,9.20375
1182,-0.02018,9.22045
1183,-0.02017,9.22045
1184,-0.02016,9.23716
1185,-0.02015,9.23716
1186,-0.02014,9.25386
1187,-0.02013,9.25386
1188,-0.02012,9.27057
1189,-0.02011,9.27057
1190,-0.0201,9.28727
1191,-0.02009,9.28727
1192,-0.02008,9.30397
1193,-0.02007,9.30397
1194,-0.02006,9.32068
1195,-0.02005,9.32068
1196,-0.02004,9.35408
1197,-0.02003,9.35408
1198,-0.02002,9.37079
1199,-0.02001,9.37079
1200,-0.02,9.38749
1201,-0.01999,9.38749
1202,-0.01998,9.40419
1203,-0.01997,9.40419
1204,-0.01996,9.40419
1205,-0.01995,9.4209
1206,-0.01994,9.4209
1207,-0.01993,9.4376
1208,-0.01992,9.4376
1209,-0.01991,9.45431
1210,-0.0199,9.45431
1211,-0.01989,9.47101
1212,-0.01988,9.47101
1213,-0.01987,9.48771
1214,-0.01986,9.48771
1215,-0.01985,9.48771
1216,-0.01984,9.50442
1217,-0.01983,9.50442
1218,-0.01982,9.53782
1219,-0.01981,9.53782
1220,-0.0198,9.53782
1221,-0.01979,9.53782
1222,-0.01978,9.55453
1223,-0.01977,9.55453
1224,-0.01976,9.57123
1225,-0.01975,9.57123
1226,-0.01974,9.60464
1227,-0.01973,9.60464
1228,-0.01972,9.62134
1229,-0.01971,9.62134
1230,-0.0197,9.63805
1231,-0.01969,9.63805
1232,-0.01968,9.65475
1233,-0.01967,9.65475
1234,-0.01966,9.67145
1235,-0.01965,9.67145
1236,-0.01964,9.68816
1237,-0.01963,9.68816
1238,-0.01962,9.72157
1239,-0.01961,9.70486
1240,-0.0196,9.72157
1241,-0.01959,9.72157
1242,-0.01958,9.73827
1243,-0.01957,9.73827
1244,-0.01956,9.75497
1245,-0.01955,9.75497
1246,-0.01954,9.75497
1247,-0.01953,9.78838
1248,-0.01952,9.78838
1249,-0.01951,9.78838
1250,-0.0195,9.78838
1251,-0.01949,9.82179
1252,-0.01948,9.80508
1253,-0.01947,9.8552
1254,-0.01946,9.82179
1255,-0.01945,9.8719
1256,-0.01944,9.8552
1257,-0.01943,9.8886
1258,-0.01942,9.8719
1259,-0.01941,9.90531
1260,-0.0194,9.90531
1261,-0.01939,9.90531
1262,-0.01938,9.90531
1263,-0.01937,9.93871
1264,-0.01936,9.92201
1265,-0.01935,9.93871
1266,-0.01934,9.93871
1267,-0.01933,9.95542
1268,-0.01932,9.95542
1269,-0.01931,9.97212
1270,-0.0193,9.97212
1271,-0.01929,9.97212
1272,-0.01928,10.0055
1273,-0.01927,9.98883
1274,-0.01926,10.0222
1275,-0.01925,10.0055
1276,-0.01924,10.0389
1277,-0.01923,10.0222
1278,-0.01922,10.0556
1279,-0.01921,10.0556
1280,-0.0192,10.0556
1281,-0.01919,10.1058
1282,-0.01918,10.1058
1283,-0.01917,10.1058
1284,-0.01916,10.1058
1285,-0.01915,10.1225
1286,-0.01914,10.1225
1287,-0.01913,10.1225
1288,-0.01912,10.1559
1289,-0.01911,10.1392
1290,-0.0191,10.1559
1291,-0.01909,10.1559
1292,-0.01908,10.1893
1293,-0.01907,10.1726
1294,-0.01906,10.1893
1295,-0.01905,10.1893
1296,-0.01904,10.206
1297,-0.01903,10.206
1298,-0.01902,10.2227
1299,-0.01901,10.2227
1300,-0.019,10.2394
1301,-0.01899,10.2394
1302,-0.01898,10.2394
1303,-0.01897,10.2561
1304,-0.01896,10.2561
1305,-0.01895,10.2895
1306,-0.01894,10.2895
1307,-0.01893,10.2895
1308,-0.01892,10.3062
1309,-0.01891,10.3062
1310,-0.0189,10.3062
1311,-0.01889,10.3563
1312,-0.01888,10.3563
1313,-0.01887,10.3563
1314,-0.01886,10.3563
1315,-0.01885,10.3897
1316,-0.01884,10.373
1317,-0.01883,10.4064
1318,-0.01882,10.3897
1319,-0.01881,10.4231
1320,-0.0188,10.4064
1321,-0.01879,10.4398
1322,-0.01878,10.4231
1323,-0.01877,10.4398
1324,-0.01876,10.4398
1325,-0.01875,10.4565
1326,-0.01874,10.4565
1327,-0.01873,10.4732
1328,-0.01872,10.4732
1329,-0.01871,10.4732
1330,-0.0187,10.5066
1331,-0.01869,10.4899
1332,-0.01868,10.5066
1333,-0.01867,10.5066
1334,-0.01866,10.5233
1335,-0.01865,10.5233
1336,-0.01864,10.54
1337,-0.01863,10.54
1338,-0.01862,10.54
1339,-0.01861,10.5902
1340,-0.0186,10.5568
1341,-0.01859,10.6069
1342,-0.01858,10.5902
1343,-0.01857,10.6236
1344,-0.01856,10.6069
1345,-0.01855,10.6403
1346,-0.01854,10.6236
1347,-0.01853,10.657
1348,-0.01852,10.6403
1349,-0.01851,10.6737
1350,-0.0185,10.657
1351,-0.01849,10.6904
1352,-0.01848,10.6737
1353,-0.01847,10.7071
1354,-0.01846,10.7071
1355,-0.01845,10.7071
1356,-0.01844,10.7071
1357,-0.01843,10.7071
1358,-0.01842,10.7405
1359,-0.01841,10.7238
1360,-0.0184,10.7572
1361,-0.01839,10.7405
1362,-0.01838,10.7739
1363,-0.01837,10.7572
1364,-0.01836,10.7906
1365,-0.01835,10.7739
1366,-0.01834,10.8073
1367,-0.01833,10.7906
1368,-0.01832,10.8407
1369,-0.01831,10.8073
1370,-0.0183,10.8574
1371,-0.01829,10.8407
1372,-0.01828,10.8741
1373,-0.01827,10.8574
1374,-0.01826,10.8908
1375,-0.01825,10.8908
1376,-0.01824,10.8908
1377,-0.01823,10.8908
1378,-0.01822,10.9075
1379,-0.01821,10.9075
1380,-0.0182,10.9242
1381,-0.01819,10.9242
1382,-0.01818,10.9409
1383,-0.01817,10.9409
1384,-0.01816,10.9409
1385,-0.01815,10.9743
1386,-0.01814,10.9576
1387,-0.01813,10.991
1388,-0.01812,10.9743
1389,-0.01811,11.0078
1390,-0.0181,10.991
1391,-0.01809,11.0245
1392,-0.01808,11.0078
1393,-0.01807,11.0412
1394,-0.01806,11.0245
1395,-0.01805,11.0579
1396,-0.01804,11.0412
1397,-0.01803,11.0913
1398,-0.01802,11.0579
1399,-0.01801,11.108
1400,-0.018,11.0913
1401,-0.01799,11.1247
1402,-0.01798,11.1247
1403,-0.01797,11.1247
1404,-0.01796,11.1414
1405,-0.01795,11.1414
1406,-0.01794,11.1414
1407,-0.01793,11.1748
1408,-0.01792,11.1748
1409,-0.01791,11.1748
1410,-0.0179,11.1748
1411,-0.01789,11.1748
1412,-0.01788,11.2082
1413,-0.01787,11.2082
1414,-0.01786,11.2082
1415,-0.01785,11.2082
1416,-0.01784,11.2416
1417,-0.01783,11.2416
1418,-0.01782,11.2416
1419,-0.01781,11.2416
1420,-0.0178,11.2416
1421,-0.01779,11.275
1422,-0.01778,11.275
1423,-0.01777,11.2917
1424,-0.01776,11.2917
1425,-0.01775,11.3251
1426,-0.01774,11.3251
1427,-0.01773,11.3418
1428,-0.01772,11.3418
1429,-0.01771,11.3585
1430,-0.0177,11.3585
1431,-0.01769,11.3752
1432,-0.01768,11.3752
1433,-0.01767,11.3919
1434,-0.01766,11.3919
1435,-0.01765,11.4086
1436,-0.01764,11.4086
1437,-0.01763,11.4086
1438,-0.01762,11.4086
1439,-0.01761,11.442
1440,-0.0176,11.4253
1441,-0.01759,11.4588
1442,-0.01758,11.4588
1443,-0.01757,11.4588
1444,-0.01756,11.4755
1445,-0.01755,11.4755
1446,-0.01754,11.4922
1447,-0.01753,11.4922
1448,-0.01752,11.5089
1449,-0.01751,11.5089
1450,-0.0175,11.5256
1451,-0.01749,11.5256
1452,-0.01748,11.5423
1453,-0.01747,11.5256
1454,-0.01746,11.5757
1455,-0.01745,11.5423
1456,-0.01744,11.5924
1457,-0.01743,11.5757
1458,-0.01742,11.6091
1459,-0.01741,11.6091
1460,-0.0174,11.6258
1461,-0.01739,11.6258
1462,-0.01738,11.6425
1463,-0.01737,11.6258
1464,-0.01736,11.6592
1465,-0.01735,11.6592
1466,-0.01734,11.6592
1467,-0.01733,11.6759
1468,-0.01732,11.6592
1469,-0.01731,11.6926
1470,-0.0173,11.6926
1471,-0.01729,11.7093
1472,-0.01728,11.6926
1473,-0.01727,11.726
1474,-0.01726,11.7093
1475,-0.01725,11.7427
1476,-0.01724,11.726
1477,-0.01723,11.7594
1478,-0.01722,11.7427
1479,-0.01721,11.7761
1480,-0.0172,11.7761
1481,-0.01719,11.7928
1482,-0.01718,11.7761
1483,-0.01717,11.8262
1484,-0.01716,11.7928
1485,-0.01715,11.8429
1486,-0.01714,11.8429
1487,-0.01713,11.8429
1488,-0.01712,11.8596
1489,-0.01711,11.8596
1490,-0.0171,11.8763
1491,-0.01709,11.8763
1492,-0.01708,11.893
1493,-0.01707,11.893
1494,-0.01706,11.893
1495,-0.01705,11.9265
1496,-0.01704,11.9265
1497,-0.01703,11.9265
1498,-0.01702,11.9432
1499,-0.01701,11.9432
1500,-0.017,11.9432
1501,-0.01699,11.9599
1502,-0.01698,11.9599
1503,-0.01697,11.9766
1504,-0.01696,11.9766
1505,-0.01695,11.9933
1506,-0.01694,11.9933
1507,-0.01693,12.01
1508,-0.01692,11.9933
1509,-0.01691,12.0267
1510,-0.0169,12.0267
1511,-0.01689,12.0601
1512,-0.01688,12.0601
1513,-0.01687,12.0768
1514,-0.01686,12.0935
1515,-0.01685,12.0935
1516,-0.01684,12.1102
1517,-0.01683,12.0935
1518,-0.01682,12.1269
1519,-0.01681,12.1269
1520,-0.0168,12.1102
1521,-0.01679,12.1436
1522,-0.01678,12.1269
1523,-0.01677,12.1603
1524,-0.01676,12.1436
1525,-0.01675,12.177
1526,-0.01674,12.177
1527,-0.01673,12.177
1528,-0.01672,12.177
1529,-0.01671,12.2104
1530,-0.0167,12.2104
1531,-0.01669,12.2104
1532,-0.01668,12.2271
1533,-0.01667,12.2271
1534,-0.01666,12.2438
1535,-0.01665,12.2438
1536,-0.01664,12.2605
1537,-0.01663,12.2605
1538,-0.01662,12.2772
1539,-0.01661,12.2605
1540,-0.0166,12.3106
1541,-0.01659,12.2772
1542,-0.01658,12.3273
1543,-0.01657,12.3273
1544,-0.01656,12.3273
1545,-0.01655,12.3273
1546,-0.01654,12.3608
1547,-0.01653,12.2271
1548,-0.01652,12.8285
1549,-0.01651,2.63919
1550,-0.0165,-0.517815
1551,-0.01649,-0.71826
1552,-0.01648,-0.684853
1553,-0.01647,-0.618038
1554,-0.01646,-0.551223
1555,-0.01645,-0.484408
1556,-0.01644,-0.451
1557,-0.01643,-0.417593
1558,-0.01642,-0.400889
1559,-0.01641,-0.367482
1560,-0.0164,-0.367482
1561,-0.01639,-0.317371
1562,-0.01638,-0.317371
1563,-0.01637,-0.0668149
1564,-0.01636,-0.0668149
1565,-0.01635,-0.0668149
1566,-0.01634,-0.0668149
1567,-0.01633,-0.0668149
1568,-0.01632,-0.0668149
1569,-0.01631,-0.0668149
1570,-0.0163,-0.0668149
1571,-0.01629,-0.0668149
1572,-0.01628,-0.0668149
1573,-0.01627,-0.0668149
1574,-0.01626,-0.0668149
1575,-0.01625,-0.0668149
1576,-0.01624,-0.0668149
1577,-0.01623,-0.0668149
1578,-0.01622,-0.0668149
1579,-0.01621,-0.0668149
1580,-0.0162,-0.0668149
1581,-0.01619,-0.0668149
1582,-0.01618,-0.0668149
1583,-0.01617,-0.0668149
1584,-0.01616,-0.0668149
1585,-0.01615,-0.0668149
1586,-0.01614,-0.0668149
1587,-0.01613,-0.0668149
1588,-0.01612,-0.0668149
1589,-0.01611,-0.0668149
1590,-0.0161,-0.0668149
1591,-0.01609,-0.0668149
1592,-0.01608,-0.0668149
1593,-0.01607,-0.0668149
1594,-0.01606,-0.0668149
1595,-0.01605,-0.0668149
1596,-0.01604,-0.0668149
1597,-0.01603,-0.0668149
1598,-0.01602,-0.0668149
1599,-0.01601,-0.0668149
1600,-0.016,-0.0668149
1601,-0.01599,-0.0668149
1602,-0.01598,-0.0668149
1603,-0.01597,-0.0668149
1604,-0.01596,-0.0668149
1605,-0.01595,-0.0668149
1606,-0.01594,-0.0668149
1607,-0.01593,-0.0668149
1608,-0.01592,-0.0668149
1609,-0.01591,-0.0668149
1610,-0.0159,-0.0668149
1611,-0.01589,-0.0668149
1612,-0.01588,-0.0668149
1613,-0.01587,-0.0668149
1614,-0.01586,-0.0668149
1615,-0.01585,-0.0668149
1616,-0.01584,-0.0668149
1617,-0.01583,-0.0668149
1618,-0.01582,-0.0668149
1619,-0.01581,-0.0668149
1620,-0.0158,-0.0668149
1621,-0.01579,-0.0668149
1622,-0.01578,-0.0668149
1623,-0.01577,-0.0668149
1624,-0.01576,-0.0668149
1625,-0.01575,-0.0668149
1626,-0.01574,-0.0668149
1627,-0.01573,-0.0668149
1628,-0.01572,-0.0668149
1629,-0.01571,-0.0668149
1630,-0.0157,-0.0668149
1631,-0.01569,-0.0668149
1632,-0.01568,-0.0668149
1633,-0.01567,-0.0668149
1634,-0.01566,-0.0668149
1635,-0.01565,-0.0668149
1636,-0.01564,-0.0668149
1637,-0.01563,-0.0668149
1638,-0.01562,-0.0668149
1639,-0.01561,-0.0668149
1640,-0.0156,-0.0668149
1641,-0.01559,-0.0501112
1642,-0.01558,-0.0835186
1643,-0.01557,-0.0501112
1644,-0.01556,-0.0668149
1645,-0.01555,-0.0668149
1646,-0.01554,-0.0668149
1647,-0.01553,-0.0668149
1648,-0.01552,-0.0668149
1649,-0.01551,-0.0668149
1650,-0.0155,-0.0668149
1651,-0.01549,-0.0668149
1652,-0.01548,-0.0668149
1653,-0.01547,-0.0668149
1654,-0.01546,-0.0668149
1655,-0.01545,-0.0668149
1656,-0.01544,-0.0668149
1657,-0.01543,-0.0668149
1658,-0.01542,-0.0668149
1659,-0.01541,-0.0668149
1660,-0.0154,-0.0668149
1661,-0.01539,-0.0668149
1662,-0.01538,-0.0668149
1663,-0.01537,-0.0668149
1664,-0.01536,-0.0668149
1665,-0.01535,-0.0668149
1666,-0.01534,-0.0668149
1667,-0.01533,-0.0668149
1668,-0.01532,-0.0668149
1669,-0.01531,-0.0668149
1670,-0.0153,-0.0668149
1671,-0.01529,-0.0668149
1672,-0.01528,-0.0668149
1673,-0.01527,-0.0668149
1674,-0.01526,-0.0334074
1675,-0.01525,-0.0501112
1676,-0.01524,-0.0334074
1677,-0.01523,-0.0334074
1678,-0.01522,0
1679,-0.01521,0
1680,-0.0152,0
1681,-0.01519,0.0334074
1682,-0.01518,0.0334074
1683,-0.01517,0.0501112
1684,-0.01516,0.0501112
1685,-0.01515,0.0835186
1686,-0.01514,0.0668149
1687,-0.01513,0.100222
1688,-0.01512,0.100222
1689,-0.01511,0.100222
1690,-0.0151,0.13363
1691,-0.01509,0.13363
1692,-0.01508,0.116926
1693,-0.01507,0.150333
1694,-0.01506,0.150333
1695,-0.01505,0.167037
1696,-0.01504,0.167037
1697,-0.01503,0.183741
1698,-0.01502,0.183741
1699,-0.01501,0.183741
1700,-0.015,0.200445
1701,-0.01499,0.183741
1702,-0.01498,0.217148
1703,-0.01497,0.200445
1704,-0.01496,0.250556
1705,-0.01495,0.250556
1706,-0.01494,0.26726
1707,-0.01493,0.26726
1708,-0.01492,0.283963
1709,-0.01491,0.283963
1710,-0.0149,0.300667
1711,-0.01489,0.300667
1712,-0.01488,0.317371
1713,-0.01487,0.317371
1714,-0.01486,0.317371
1715,-0.01485,0.350778
1716,-0.01484,0.367482
1717,-0.01483,0.367482
1718,-0.01482,0.384186
1719,-0.01481,0.384186
1720,-0.0148,0.384186
1721,-0.01479,0.417593
1722,-0.01478,0.417593
1723,-0.01477,0.417593
1724,-0.01476,0.434297
1725,-0.01475,0.417593
1726,-0.01474,0.451
1727,-0.01473,0.451
1728,-0.01472,0.451
1729,-0.01471,0.467704
1730,-0.0147,0.467704
1731,-0.01469,0.501112
1732,-0.01468,0.467704
1733,-0.01467,0.517815
1734,-0.01466,0.517815
1735,-0.01465,0.534519
1736,-0.01464,0.551223
1737,-0.01463,0.551223
1738,-0.01462,0.567927
1739,-0.01461,0.567927
1740,-0.0146,0.58463
1741,-0.01459,0.58463
1742,-0.01458,0.601334
1743,-0.01457,0.58463
1744,-0.01456,0.618038
1745,-0.01455,0.618038
1746,-0.01454,0.634741
1747,-0.01453,0.634741
1748,-0.01452,0.651445
1749,-0.01451,0.651445
1750,-0.0145,0.668149
1751,-0.01449,0.668149
1752,-0.01448,0.668149
1753,-0.01447,0.701556
1754,-0.01446,0.684853
1755,-0.01445,0.71826
1756,-0.01444,0.701556
1757,-0.01443,0.751667
1758,-0.01442,0.71826
1759,-0.01441,0.768371
1760,-0.0144,0.768371
1761,-0.01439,0.785075
1762,-0.01438,0.785075
1763,-0.01437,0.801779
1764,-0.01436,0.801779
1765,-0.01435,0.818482
1766,-0.01434,0.818482
1767,-0.01433,0.835186
1768,-0.01432,0.835186
1769,-0.01431,0.835186
1770,-0.0143,0.868594
1771,-0.01429,0.868594
1772,-0.01428,0.868594
1773,-0.01427,0.885297
1774,-0.01426,0.885297
1775,-0.01425,0.885297
1776,-0.01424,0.918705
1777,-0.01423,0.902001
1778,-0.01422,0.935408
1779,-0.01421,0.918705
1780,-0.0142,0.952112
1781,-0.01419,0.952112
1782,-0.01418,0.952112
1783,-0.01417,0.98552
1784,-0.01416,0.98552
1785,-0.01415,1.00222
1786,-0.01414,1.00222
1787,-0.01413,1.00222
1788,-0.01412,1.03563
1789,-0.01411,1.03563
1790,-0.0141,1.03563
1791,-0.01409,1.06904
1792,-0.01408,1.06904
1793,-0.01407,1.05233
1794,-0.01406,1.08574
1795,-0.01405,1.08574
1796,-0.01404,1.10245
1797,-0.01403,1.08574
1798,-0.01402,1.11915
1799,-0.01401,1.11915
1800,-0.014,1.13585
1801,-0.01399,1.13585
1802,-0.01398,1.15256
1803,-0.01397,1.15256
1804,-0.01396,1.15256
1805,-0.01395,1.18596
1806,-0.01394,1.16926
1807,-0.01393,1.20267
1808,-0.01392,1.18596
1809,-0.01391,1.23608
1810,-0.0139,1.20267
1811,-0.01389,1.25278
1812,-0.01388,1.23608
1813,-0.01387,1.26948
1814,-0.01386,1.25278
1815,-0.01385,1.28619
1816,-0.01384,1.26948
1817,-0.01383,1.30289
1818,-0.01382,1.28619
1819,-0.01381,1.31959
1820,-0.0138,1.30289
1821,-0.01379,1.3363
1822,-0.01378,1.3363
1823,-0.01377,1.353
1824,-0.01376,1.353
1825,-0.01375,1.36971
1826,-0.01374,1.36971
1827,-0.01373,1.38641
1828,-0.01372,1.38641
1829,-0.01371,1.40311
1830,-0.0137,1.40311
1831,-0.01369,1.41982
1832,-0.01368,1.41982
1833,-0.01367,1.43652
1834,-0.01366,1.43652
1835,-0.01365,1.45322
1836,-0.01364,1.45322
1837,-0.01363,1.48663
1838,-0.01362,1.48663
1839,-0.01361,1.48663
1840,-0.0136,1.50333
1841,-0.01359,1.50333
1842,-0.01358,1.50333
1843,-0.01357,1.53674
1844,-0.01356,1.53674
1845,-0.01355,1.55345
1846,-0.01354,1.55345
1847,-0.01353,1.57015
1848,-0.01352,1.57015
1849,-0.01351,1.58685
1850,-0.0135,1.58685
1851,-0.01349,1.60356
1852,-0.01348,1.60356
1853,-0.01347,1.62026
1854,-0.01346,1.62026
1855,-0.01345,1.63696
1856,-0.01344,1.63696
1857,-0.01343,1.63696
1858,-0.01342,1.67037
1859,-0.01341,1.67037
1860,-0.0134,1.68708
1861,-0.01339,1.68708
1862,-0.01338,1.70378
1863,-0.01337,1.70378
1864,-0.01336,1.73719
1865,-0.01335,1.73719
1866,-0.01334,1.75389
1867,-0.01333,1.75389
1868,-0.01332,1.77059
1869,-0.01331,1.77059
1870,-0.0133,1.7873
1871,-0.01329,1.7873
1872,-0.01328,1.804
1873,-0.01327,1.804
1874,-0.01326,1.82071
1875,-0.01325,1.83741
1876,-0.01324,1.83741
1877,-0.01323,1.85411
1878,-0.01322,1.85411
1879,-0.01321,1.87082
1880,-0.0132,1.87082
1881,-0.01319,1.88752
1882,-0.01318,1.88752
1883,-0.01317,1.90422
1884,-0.01316,1.90422
1885,-0.01315,1.92093
1886,-0.01314,1.92093
1887,-0.01313,1.93763
1888,-0.01312,1.93763
1889,-0.01311,1.97104
1890,-0.0131,1.97104
1891,-0.01309,1.98774
1892,-0.01308,1.98774
1893,-0.01307,1.98774
1894,-0.01306,2.00445
1895,-0.01305,2.00445
1896,-0.01304,2.02115
1897,-0.01303,2.02115
1898,-0.01302,2.03785
1899,-0.01301,2.03785
1900,-0.013,2.05456
1901,-0.01299,2.08797
1902,-0.01298,2.08797
1903,-0.01297,2.08797
1904,-0.01296,2.10467
1905,-0.01295,2.10467
1906,-0.01294,2.12137
1907,-0.01293,2.12137
1908,-0.01292,2.12137
1909,-0.01291,2.13808
1910,-0.0129,2.13808
1911,-0.01289,2.15478
1912,-0.01288,2.15478
1913,-0.01287,2.17148
1914,-0.01286,2.17148
1915,-0.01285,2.18819
1916,-0.01284,2.18819
1917,-0.01283,2.2216
1918,-0.01282,2.2216
1919,-0.01281,2.2383
1920,-0.0128,2.2383
1921,-0.01279,2.27171
1922,-0.01278,2.27171
1923,-0.01277,2.27171
1924,-0.01276,2.28841
1925,-0.01275,2.28841
1926,-0.01274,2.28841
1927,-0.01273,2.30511
1928,-0.01272,2.30511
1929,-0.01271,2.33852
1930,-0.0127,2.32182
1931,-0.01269,2.35522
1932,-0.01268,2.33852
1933,-0.01267,2.37193
1934,-0.01266,2.35522
1935,-0.01265,2.37193
1936,-0.01264,2.38863
1937,-0.01263,2.38863
1938,-0.01262,2.38863
1939,-0.01261,2.42204
1940,-0.0126,2.40534
1941,-0.01259,2.43874
1942,-0.01258,2.42204
1943,-0.01257,2.47215
1944,-0.01256,2.43874
1945,-0.01255,2.48885
1946,-0.01254,2.47215
1947,-0.01253,2.50556
1948,-0.01252,2.48885
1949,-0.01251,2.52226
1950,-0.0125,2.50556
1951,-0.01249,2.53897
1952,-0.01248,2.52226
1953,-0.01247,2.55567
1954,-0.01246,2.55567
1955,-0.01245,2.55567
1956,-0.01244,2.55567
1957,-0.01243,2.58908
1958,-0.01242,2.57237
1959,-0.01241,2.58908
1960,-0.0124,2.58908
1961,-0.01239,2.62248
1962,-0.01238,2.60578
1963,-0.01237,2.62248
1964,-0.01236,2.62248
1965,-0.01235,2.65589
1966,-0.01234,2.63919
1967,-0.01233,2.6726
1968,-0.01232,2.65589
1969,-0.01231,2.6893
1970,-0.0123,2.6726
1971,-0.01229,2.72271
1972,-0.01228,2.6893
1973,-0.01227,2.73941
1974,-0.01226,2.72271
1975,-0.01225,2.75611
1976,-0.01224,2.73941
1977,-0.01223,2.77282
1978,-0.01222,2.75611
1979,-0.01221,2.78952
1980,-0.0122,2.77282
1981,-0.01219,2.80623
1982,-0.01218,2.80623
1983,-0.01217,2.80623
1984,-0.01216,2.80623
1985,-0.01215,2.83963
1986,-0.01214,2.83963
1987,-0.01213,2.83963
1988,-0.01212,2.85634
1989,-0.01211,2.85634
1990,-0.0121,2.87304
1991,-0.01209,2.87304
1992,-0.01208,2.87304
1993,-0.01207,2.90645
1994,-0.01206,2.90645
1995,-0.01205,2.90645
1996,-0.01204,2.95656
1997,-0.01203,2.92315
1998,-0.01202,2.92315
1999,-0.01201,2.97326
2000,-0.012,2.95656
2001,-0.01199,2.98997
2002,-0.01198,2.97326
2003,-0.01197,3.00667
2004,-0.01196,2.98997
2005,-0.01195,3.02337
2006,-0.01194,3.00667
2007,-0.01193,3.04008
2008,-0.01192,3.02337
2009,-0.01191,3.05678
2010,-0.0119,3.04008
2011,-0.01189,3.07348
2012,-0.01188,3.05678
2013,-0.01187,3.09019
2014,-0.01186,3.07348
2015,-0.01185,3.10689
2016,-0.01184,3.10689
2017,-0.01183,3.10689
2018,-0.01182,3.1236
2019,-0.01181,3.1403
2020,-0.0118,3.1403
2021,-0.01179,3.157
2022,-0.01178,3.157
2023,-0.01177,3.157
2024,-0.01176,3.20711
2025,-0.01175,3.17371
2026,-0.01174,3.20711
2027,-0.01173,3.20711
2028,-0.01172,3.22382
2029,-0.01171,3.22382
2030,-0.0117,3.24052
2031,-0.01169,3.24052
2032,-0.01168,3.25723
2033,-0.01167,3.25723
2034,-0.01166,3.27393
2035,-0.01165,3.27393
2036,-0.01164,3.29063
2037,-0.01163,3.29063
2038,-0.01162,3.30734
2039,-0.01161,3.30734
2040,-0.0116,3.32404
2041,-0.01159,3.32404
2042,-0.01158,3.34074
2043,-0.01157,3.34074
2044,-0.01156,3.37415
2045,-0.01155,3.35745
2046,-0.01154,3.39086
2047,-0.01153,3.37415
2048,-0.01152,3.40756
2049,-0.01151,3.39086
2050,-0.0115,3.42426
2051,-0.01149,3.42426
2052,-0.01148,3.42426
2053,-0.01147,3.42426
2054,-0.01146,3.47437
2055,-0.01145,3.45767
2056,-0.01144,3.49108
2057,-0.01143,3.49108
2058,-0.01142,3.49108
2059,-0.01141,3.49108
2060,-0.0114,3.50778
2061,-0.01139,3.50778
2062,-0.01138,3.52449
2063,-0.01137,3.52449
2064,-0.01136,3.54119
2065,-0.01135,3.54119
2066,-0.01134,3.55789
2067,-0.01133,3.55789
2068,-0.01132,3.5746
2069,-0.01131,3.5746
2070,-0.0113,3.5913
2071,-0.01129,3.5913
2072,-0.01128,3.608
2073,-0.01127,3.608
2074,-0.01126,3.62471
2075,-0.01125,3.62471
2076,-0.01124,3.65811
2077,-0.01123,3.64141
2078,-0.01122,3.67482
2079,-0.01121,3.65811
2080,-0.0112,3.70823
2081,-0.01119,3.70823
2082,-0.01118,3.70823
2083,-0.01117,3.72493
2084,-0.01116,3.72493
2085,-0.01115,3.74163
2086,-0.01114,3.74163
2087,-0.01113,3.75834
2088,-0.01112,3.75834
2089,-0.01111,3.77504
2090,-0.0111,3.77504
2091,-0.01109,3.79174
2092,-0.01108,3.79174
2093,-0.01107,3.80845
2094,-0.01106,3.80845
2095,-0.01105,3.80845
2096,-0.01104,3.80845
2097,-0.01103,3.84186
2098,-0.01102,3.82515
2099,-0.01101,3.85856
2100,-0.011,3.85856
2101,-0.01099,3.87526
2102,-0.01098,3.87526
2103,-0.01097,3.87526
2104,-0.01096,3.90867
2105,-0.01095,3.90867
2106,-0.01094,3.90867
2107,-0.01093,3.90867
2108,-0.01092,3.95878
2109,-0.01091,3.95878
2110,-0.0109,3.94208
2111,-0.01089,3.97549
2112,-0.01088,3.97549
2113,-0.01087,3.97549
2114,-0.01086,3.99219
2115,-0.01085,3.99219
2116,-0.01084,4.00889
2117,-0.01083,4.00889
2118,-0.01082,4.0256
2119,-0.01081,4.0256
2120,-0.0108,4.059
2121,-0.01079,4.0423
2122,-0.01078,4.07571
2123,-0.01077,4.059
2124,-0.01076,4.09241
2125,-0.01075,4.09241
2126,-0.01074,4.10912
2127,-0.01073,4.10912
2128,-0.01072,4.12582
2129,-0.01071,4.10912
2130,-0.0107,4.14252
2131,-0.01069,4.14252
2132,-0.01068,4.14252
2133,-0.01067,4.19263
2134,-0.01066,4.19263
2135,-0.01065,4.19263
2136,-0.01064,4.20934
2137,-0.01063,4.20934
2138,-0.01062,4.19263
2139,-0.01061,4.22604
2140,-0.0106,4.22604
2141,-0.01059,4.22604
2142,-0.01058,4.22604
2143,-0.01057,4.25945
2144,-0.01056,4.24275
2145,-0.01055,4.27615
2146,-0.01054,4.25945
2147,-0.01053,4.29286
2148,-0.01052,4.30956
2149,-0.01051,4.29286
2150,-0.0105,4.32626
2151,-0.01049,4.32626
2152,-0.01048,4.34297
2153,-0.01047,4.34297
2154,-0.01046,4.35967
2155,-0.01045,4.35967
2156,-0.01044,4.35967
2157,-0.01043,4.35967
2158,-0.01042,4.39308
2159,-0.01041,4.39308
2160,-0.0104,4.39308
2161,-0.01039,4.40978
2162,-0.01038,4.40978
2163,-0.01037,4.44319
2164,-0.01036,4.44319
2165,-0.01035,4.45989
2166,-0.01034,4.45989
2167,-0.01033,4.45989
2168,-0.01032,4.4933
2169,-0.01031,4.4933
2170,-0.0103,4.4766
2171,-0.01029,4.51
2172,-0.01028,4.4933
2173,-0.01027,4.52671
2174,-0.01026,4.51
2175,-0.01025,4.54341
2176,-0.01024,4.52671
2177,-0.01023,4.56012
2178,-0.01022,4.54341
2179,-0.01021,4.57682
2180,-0.0102,4.57682
2181,-0.01019,4.59352
2182,-0.01018,4.59352
2183,-0.01017,4.61023
2184,-0.01016,4.61023
2185,-0.01015,4.62693
2186,-0.01014,4.61023
2187,-0.01013,4.64363
2188,-0.01012,4.64363
2189,-0.01011,4.67704
2190,-0.0101,4.67704
2191,-0.01009,4.69375
2192,-0.01008,4.69375
2193,-0.01007,4.71045
2194,-0.01006,4.69375
2195,-0.01005,4.72715
2196,-0.01004,4.71045
2197,-0.01003,4.74386
2198,-0.01002,4.72715
2199,-0.01001,4.76056
2200,-0.01,4.74386
2201,-0.00999,4.77726
2202,-0.00998,4.76056
2203,-0.00997,4.79397
2204,-0.00996,4.79397
2205,-0.00995,4.81067
2206,-0.00994,4.79397
2207,-0.00993,4.82738
2208,-0.00992,4.81067
2209,-0.00991,4.84408
2210,-0.0099,4.84408
2211,-0.00989,4.86078
2212,-0.00988,4.86078
2213,-0.00987,4.87749
2214,-0.00986,4.86078
2215,-0.00985,4.89419
2216,-0.00984,4.89419
2217,-0.00983,4.9276
2218,-0.00982,4.9276
2219,-0.00981,4.9443
2220,-0.0098,4.9443
2221,-0.00979,4.96101
2222,-0.00978,4.9443
2223,-0.00977,4.97771
2224,-0.00976,4.97771
2225,-0.00975,4.97771
2226,-0.00974,4.99441
2227,-0.00973,4.99441
2228,-0.00972,4.99441
2229,-0.00971,5.02782
2230,-0.0097,5.02782
2231,-0.00969,5.02782
2232,-0.00968,5.02782
2233,-0.00967,5.06123
2234,-0.00966,5.06123
2235,-0.00965,5.06123
2236,-0.00964,5.07793
2237,-0.00963,5.07793
2238,-0.00962,5.07793
2239,-0.00961,5.11134
2240,-0.0096,5.11134
2241,-0.00959,5.12804
2242,-0.00958,5.12804
2243,-0.00957,5.14475
2244,-0.00956,5.14475
2245,-0.00955,5.17815
2246,-0.00954,5.17815
2247,-0.00953,5.19486
2248,-0.00952,5.19486
2249,-0.00951,5.19486
2250,-0.0095,5.19486
2251,-0.00949,5.22826
2252,-0.00948,5.22826
2253,-0.00947,5.22826
2254,-0.00946,5.24497
2255,-0.00945,5.24497
2256,-0.00944,5.26167
2257,-0.00943,5.26167
2258,-0.00942,5.27838
2259,-0.00941,5.27838
2260,-0.0094,5.29508
2261,-0.00939,5.29508
2262,-0.00938,5.31178
2263,-0.00937,5.31178
2264,-0.00936,5.32849
2265,-0.00935,5.32849
2266,-0.00934,5.34519
2267,-0.00933,5.34519
2268,-0.00932,5.36189
2269,-0.00931,5.36189
2270,-0.0093,5.3786
2271,-0.00929,5.3786
2272,-0.00928,5.3953
2273,-0.00927,5.3953
2274,-0.00926,5.42871
2275,-0.00925,5.42871
2276,-0.00924,5.44541
2277,-0.00923,5.44541
2278,-0.00922,5.46212
2279,-0.00921,5.46212
2280,-0.0092,5.46212
2281,-0.00919,5.47882
2282,-0.00918,5.47882
2283,-0.00917,5.49552
2284,-0.00916,5.49552
2285,-0.00915,5.51223
2286,-0.00914,5.52893
2287,-0.00913,5.52893
2288,-0.00912,5.54564
2289,-0.00911,5.54564
2290,-0.0091,5.56234
2291,-0.00909,5.56234
2292,-0.00908,5.57904
2293,-0.00907,5.57904
2294,-0.00906,5.59575
2295,-0.00905,5.59575
2296,-0.00904,5.61245
2297,-0.00903,5.61245
2298,-0.00902,5.62915
2299,-0.00901,5.62915
2300,-0.009,5.66256
2301,-0.00899,5.66256
2302,-0.00898,5.67927
2303,-0.00897,5.67927
2304,-0.00896,5.69597
2305,-0.00895,5.69597
2306,-0.00894,5.71267
2307,-0.00893,5.71267
2308,-0.00892,5.72938
2309,-0.00891,5.72938
2310,-0.0089,5.74608
2311,-0.00889,5.74608
2312,-0.00888,5.76278
2313,-0.00887,5.76278
2314,-0.00886,5.77949
2315,-0.00885,5.77949
2316,-0.00884,5.79619
2317,-0.00883,5.79619
2318,-0.00882,5.8129
2319,-0.00881,5.8129
2320,-0.0088,5.8129
2321,-0.00879,5.8296
2322,-0.00878,5.8296
2323,-0.00877,5.86301
2324,-0.00876,5.86301
2325,-0.00875,5.86301
2326,-0.00874,5.87971
2327,-0.00873,5.87971
2328,-0.00872,5.91312
2329,-0.00871,5.91312
2330,-0.0087,5.92982
2331,-0.00869,5.92982
2332,-0.00868,5.94652
2333,-0.00867,5.94652
2334,-0.00866,5.96323
2335,-0.00865,5.96323
2336,-0.00864,5.96323
2337,-0.00863,5.97993
2338,-0.00862,5.97993
2339,-0.00861,5.99664
2340,-0.0086,5.99664
2341,-0.00859,6.03004
2342,-0.00858,6.01334
2343,-0.00857,6.04675
2344,-0.00856,6.03004
2345,-0.00855,6.06345
2346,-0.00854,6.04675
2347,-0.00853,6.06345
2348,-0.00852,6.09686
2349,-0.00851,6.09686
2350,-0.0085,6.09686
2351,-0.00849,6.09686
2352,-0.00848,6.11356
2353,-0.00847,6.11356
2354,-0.00846,6.13027
2355,-0.00845,6.13027
2356,-0.00844,6.13027
2357,-0.00843,6.18038
2358,-0.00842,6.18038
2359,-0.00841,6.18038
2360,-0.0084,6.18038
2361,-0.00839,6.21378
2362,-0.00838,6.19708
2363,-0.00837,6.23049
2364,-0.00836,6.21378
2365,-0.00835,6.24719
2366,-0.00834,6.23049
2367,-0.00833,6.2639
2368,-0.00832,6.24719
2369,-0.00831,6.2806
2370,-0.0083,6.2639
2371,-0.00829,6.2973
2372,-0.00828,6.2806
2373,-0.00827,6.2973
2374,-0.00826,6.2973
2375,-0.00825,6.33071
2376,-0.00824,6.31401
2377,-0.00823,6.34741
2378,-0.00822,6.33071
2379,-0.00821,6.36412
2380,-0.0082,6.34741
2381,-0.00819,6.38082
2382,-0.00818,6.36412
2383,-0.00817,6.41423
2384,-0.00816,6.38082
2385,-0.00815,6.43093
2386,-0.00814,6.43093
2387,-0.00813,6.43093
2388,-0.00812,6.43093
2389,-0.00811,6.46434
2390,-0.0081,6.44764
2391,-0.00809,6.46434
2392,-0.00808,6.46434
2393,-0.00807,6.48104
2394,-0.00806,6.48104
2395,-0.00805,6.49775
2396,-0.00804,6.49775
2397,-0.00803,6.49775
2398,-0.00802,6.53116
2399,-0.00801,6.51445
2400,-0.008,6.53116
2401,-0.00799,6.53116
2402,-0.00798,6.54786
2403,-0.00797,6.54786
2404,-0.00796,6.56456
2405,-0.00795,6.56456
2406,-0.00794,6.58127
2407,-0.00793,6.58127
2408,-0.00792,6.59797
2409,-0.00791,6.59797
2410,-0.0079,6.61467
2411,-0.00789,6.61467
2412,-0.00788,6.64808
2413,-0.00787,6.64808
2414,-0.00786,6.68149
2415,-0.00785,6.66478
2416,-0.00784,6.69819
2417,-0.00783,6.68149
2418,-0.00782,6.7149
2419,-0.00781,6.69819
2420,-0.0078,6.7316
2421,-0.00779,6.7149
2422,-0.00778,6.7316
2423,-0.00777,6.7316
2424,-0.00776,6.7316
2425,-0.00775,6.76501
2426,-0.00774,6.76501
2427,-0.00773,6.76501
2428,-0.00772,6.76501
2429,-0.00771,6.79841
2430,-0.0077,6.79841
2431,-0.00769,6.79841
2432,-0.00768,6.81512
2433,-0.00767,6.81512
2434,-0.00766,6.83182
2435,-0.00765,6.83182
2436,-0.00764,6.84853
2437,-0.00763,6.84853
2438,-0.00762,6.86523
2439,-0.00761,6.86523
2440,-0.0076,6.89864
2441,-0.00759,6.89864
2442,-0.00758,6.91534
2443,-0.00757,6.91534
2444,-0.00756,6.93204
2445,-0.00755,6.93204
2446,-0.00754,6.93204
2447,-0.00753,6.96545
2448,-0.00752,6.94875
2449,-0.00751,6.98216
2450,-0.0075,6.96545
2451,-0.00749,6.99886
2452,-0.00748,6.98216
2453,-0.00747,7.01556
2454,-0.00746,6.99886
2455,-0.00745,7.03227
2456,-0.00744,7.03227
2457,-0.00743,7.03227
2458,-0.00742,7.04897
2459,-0.00741,7.04897
2460,-0.0074,7.04897
2461,-0.00739,7.08238
2462,-0.00738,7.06567
2463,-0.00737,7.09908
2464,-0.00736,7.09908
2465,-0.00735,7.09908
2466,-0.00734,7.11579
2467,-0.00733,7.11579
2468,-0.00732,7.14919
2469,-0.00731,7.14919
2470,-0.0073,7.1659
2471,-0.00729,7.1659
2472,-0.00728,7.1659
2473,-0.00727,7.1993
2474,-0.00726,7.1826
2475,-0.00725,7.21601
2476,-0.00724,7.1993
2477,-0.00723,7.23271
2478,-0.00722,7.21601
2479,-0.00721,7.24941
2480,-0.0072,7.24941
2481,-0.00719,7.24941
2482,-0.00718,7.24941
2483,-0.00717,7.24941
2484,-0.00716,7.28282
2485,-0.00715,7.26612
2486,-0.00714,7.29953
2487,-0.00713,7.28282
2488,-0.00712,7.31623
2489,-0.00711,7.29953
2490,-0.0071,7.33293
2491,-0.00709,7.33293
2492,-0.00708,7.33293
2493,-0.00707,7.34964
2494,-0.00706,7.36634
2495,-0.00705,7.36634
2496,-0.00704,7.39975
2497,-0.00703,7.39975
2498,-0.00702,7.41645
2499,-0.00701,7.41645
2500,-0.007,7.43316
2501,-0.00699,7.43316
2502,-0.00698,7.43316
2503,-0.00697,7.43316
2504,-0.00696,7.46656
2505,-0.00695,7.46656
2506,-0.00694,7.46656
2507,-0.00693,7.48327
2508,-0.00692,7.48327
2509,-0.00691,7.49997
2510,-0.0069,7.49997
2511,-0.00689,7.51667
2512,-0.00688,7.51667
2513,-0.00687,7.53338
2514,-0.00686,7.53338
2515,-0.00685,7.55008
2516,-0.00684,7.55008
2517,-0.00683,7.56679
2518,-0.00682,7.56679
2519,-0.00681,7.58349
2520,-0.0068,7.58349
2521,-0.00679,7.60019
2522,-0.00678,7.60019
2523,-0.00677,7.6336
2524,-0.00676,7.6336
2525,-0.00675,7.6503
2526,-0.00674,7.6503
2527,-0.00673,7.6503
2528,-0.00672,7.6503
2529,-0.00671,7.68371
2530,-0.0067,7.66701
2531,-0.00669,7.70042
2532,-0.00668,7.70042
2533,-0.00667,7.70042
2534,-0.00666,7.70042
2535,-0.00665,7.73382
2536,-0.00664,7.71712
2537,-0.00663,7.75053
2538,-0.00662,7.73382
2539,-0.00661,7.76723
2540,-0.0066,7.75053
2541,-0.00659,7.78393
2542,-0.00658,7.76723
2543,-0.00657,7.80064
2544,-0.00656,7.80064
2545,-0.00655,7.80064
2546,-0.00654,7.81734
2547,-0.00653,7.81734
2548,-0.00652,7.83405
2549,-0.00651,7.83405
2550,-0.0065,7.85075
2551,-0.00649,7.85075
2552,-0.00648,7.88416
2553,-0.00647,7.88416
2554,-0.00646,7.88416
2555,-0.00645,7.91756
2556,-0.00644,7.90086
2557,-0.00643,7.93427
2558,-0.00642,7.93427
2559,-0.00641,7.93427
2560,-0.0064,7.95097
2561,-0.00639,7.95097
2562,-0.00638,7.96768
2563,-0.00637,7.95097
2564,-0.00636,7.98438
2565,-0.00635,7.96768
2566,-0.00634,8.00108
2567,-0.00633,8.00108
2568,-0.00632,8.00108
2569,-0.00631,8.00108
2570,-0.0063,8.03449
2571,-0.00629,8.03449
2572,-0.00628,8.05119
2573,-0.00627,8.0679
2574,-0.00626,8.0679
2575,-0.00625,8.0846
2576,-0.00624,8.0846
2577,-0.00623,8.10131
2578,-0.00622,8.10131
2579,-0.00621,8.13471
2580,-0.0062,8.13471
2581,-0.00619,8.10131
2582,-0.00618,8.15142
2583,-0.00617,8.15142
2584,-0.00616,8.15142
2585,-0.00615,8.16812
2586,-0.00614,8.16812
2587,-0.00613,8.18482
2588,-0.00612,8.18482
2589,-0.00611,8.20153
2590,-0.0061,8.20153
2591,-0.00609,8.21823
2592,-0.00608,8.21823
2593,-0.00607,8.23493
2594,-0.00606,8.23493
2595,-0.00605,8.23493
2596,-0.00604,8.26834
2597,-0.00603,8.25164
2598,-0.00602,8.28505
2599,-0.00601,8.26834
2600,-0.006,8.30175
2601,-0.00599,8.30175
2602,-0.00598,8.30175
2603,-0.00597,8.30175
2604,-0.00596,8.33516
2605,-0.00595,8.33516
2606,-0.00594,8.31845
2607,-0.00593,8.36856
2608,-0.00592,8.36856
2609,-0.00591,8.38527
2610,-0.0059,8.38527
2611,-0.00589,8.40197
2612,-0.00588,8.38527
2613,-0.00587,8.41868
2614,-0.00586,8.41868
2615,-0.00585,8.43538
2616,-0.00584,8.41868
2617,-0.00583,8.45208
2618,-0.00582,8.43538
2619,-0.00581,8.46879
2620,-0.0058,8.46879
2621,-0.00579,8.46879
2622,-0.00578,8.48549
2623,-0.00577,8.46879
2624,-0.00576,8.50219
2625,-0.00575,8.50219
2626,-0.00574,8.5189
2627,-0.00573,8.5189
2628,-0.00572,8.5356
2629,-0.00571,8.5356
2630,-0.0057,8.55231
2631,-0.00569,8.5356
2632,-0.00568,8.56901
2633,-0.00567,8.56901
2634,-0.00566,8.58571
2635,-0.00565,8.56901
2636,-0.00564,8.61912
2637,-0.00563,8.58571
2638,-0.00562,8.63582
2639,-0.00561,8.61912
2640,-0.0056,8.65253
2641,-0.00559,8.63582
2642,-0.00558,8.66923
2643,-0.00557,8.65253
2644,-0.00556,8.68594
2645,-0.00555,8.66923
2646,-0.00554,8.70264
2647,-0.00553,8.70264
2648,-0.00552,8.70264
2649,-0.00551,8.71934
2650,-0.0055,8.71934
2651,-0.00549,8.71934
2652,-0.00548,8.75275
2653,-0.00547,8.75275
2654,-0.00546,8.75275
2655,-0.00545,8.76945
2656,-0.00544,8.76945
2657,-0.00543,8.78616
2658,-0.00542,8.78616
2659,-0.00541,8.80286
2660,-0.0054,8.80286
2661,-0.00539,8.81956
2662,-0.00538,8.81956
2663,-0.00537,8.83627
2664,-0.00536,8.83627
2665,-0.00535,8.86968
2666,-0.00534,8.86968
2667,-0.00533,8.88638
2668,-0.00532,8.88638
2669,-0.00531,8.90308
2670,-0.0053,8.90308
2671,-0.00529,8.91979
2672,-0.00528,8.91979
2673,-0.00527,8.93649
2674,-0.00526,8.93649
2675,-0.00525,8.95319
2676,-0.00524,8.95319
2677,-0.00523,8.9699
2678,-0.00522,8.9699
2679,-0.00521,8.9699
2680,-0.0052,8.9866
2681,-0.00519,8.9866
2682,-0.00518,9.00331
2683,-0.00517,9.00331
2684,-0.00516,9.02001
2685,-0.00515,9.02001
2686,-0.00514,9.03671
2687,-0.00513,9.03671
2688,-0.00512,9.03671
2689,-0.00511,9.07012
2690,-0.0051,9.07012
2691,-0.00509,9.08682
2692,-0.00508,9.08682
2693,-0.00507,9.12023
2694,-0.00506,9.12023
2695,-0.00505,9.13694
2696,-0.00504,9.13694
2697,-0.00503,9.15364
2698,-0.00502,9.15364
2699,-0.00501,9.15364
2700,-0.005,9.17034
2701,-0.00499,9.17034
2702,-0.00498,9.18705
2703,-0.00497,9.18705
2704,-0.00496,9.20375
2705,-0.00495,9.20375
2706,-0.00494,9.22045
2707,-0.00493,9.22045
2708,-0.00492,9.23716
2709,-0.00491,9.23716
2710,-0.0049,9.25386
2711,-0.00489,9.25386
2712,-0.00488,9.27057
2713,-0.00487,9.27057
2714,-0.00486,9.28727
2715,-0.00485,9.28727
2716,-0.00484,9.30397
2717,-0.00483,9.30397
2718,-0.00482,9.32068
2719,-0.00481,9.32068
2720,-0.0048,9.35408
2721,-0.00479,9.35408
2722,-0.00478,9.37079
2723,-0.00477,9.37079
2724,-0.00476,9.38749
2725,-0.00475,9.38749
2726,-0.00474,9.40419
2727,-0.00473,9.40419
2728,-0.00472,9.4209
2729,-0.00471,9.4209
2730,-0.0047,9.4209
2731,-0.00469,9.4376
2732,-0.00468,9.4376
2733,-0.00467,9.45431
2734,-0.00466,9.45431
2735,-0.00465,9.47101
2736,-0.00464,9.47101
2737,-0.00463,9.48771
2738,-0.00462,9.48771
2739,-0.00461,9.50442
2740,-0.0046,9.50442
2741,-0.00459,9.50442
2742,-0.00458,9.52112
2743,-0.00457,9.52112
2744,-0.00456,9.53782
2745,-0.00455,9.53782
2746,-0.00454,9.55453
2747,-0.00453,9.55453
2748,-0.00452,9.57123
2749,-0.00451,9.57123
2750,-0.0045,9.60464
2751,-0.00449,9.60464
2752,-0.00448,9.62134
2753,-0.00447,9.62134
2754,-0.00446,9.63805
2755,-0.00445,9.63805
2756,-0.00444,9.65475
2757,-0.00443,9.65475
2758,-0.00442,9.67145
2759,-0.00441,9.67145
2760,-0.0044,9.68816
2761,-0.00439,9.68816
2762,-0.00438,9.72157
2763,-0.00437,9.70486
2764,-0.00436,9.72157
2765,-0.00435,9.72157
2766,-0.00434,9.75497
2767,-0.00433,9.73827
2768,-0.00432,9.75497
2769,-0.00431,9.75497
2770,-0.0043,9.77168
2771,-0.00429,9.77168
2772,-0.00428,9.78838
2773,-0.00427,9.78838
2774,-0.00426,9.78838
2775,-0.00425,9.82179
2776,-0.00424,9.80508
2777,-0.00423,9.8552
2778,-0.00422,9.8552
2779,-0.00421,9.8552
2780,-0.0042,9.8719
2781,-0.00419,9.8719
2782,-0.00418,9.8886
2783,-0.00417,9.8886
2784,-0.00416,9.8886
2785,-0.00415,9.92201
2786,-0.00414,9.90531
2787,-0.00413,9.93871
2788,-0.00412,9.92201
2789,-0.00411,9.95542
2790,-0.0041,9.93871
2791,-0.00409,9.95542
2792,-0.00408,9.95542
2793,-0.00407,9.95542
2794,-0.00406,9.98883
2795,-0.00405,9.97212
2796,-0.00404,10.0055
2797,-0.00403,9.98883
2798,-0.00402,10.0222
2799,-0.00401,10.0055
2800,-0.004,10.0389
2801,-0.00399,10.0222
2802,-0.00398,10.0389
2803,-0.00397,10.0723
2804,-0.00396,10.0723
2805,-0.00395,10.0723
2806,-0.00394,10.1058
2807,-0.00393,10.1058
2808,-0.00392,10.1058
2809,-0.00391,10.1392
2810,-0.0039,10.1225
2811,-0.00389,10.1225
2812,-0.00388,10.1559
2813,-0.00387,10.1392
2814,-0.00386,10.1726
2815,-0.00385,10.1559
2816,-0.00384,10.1893
2817,-0.00383,10.1726
2818,-0.00382,10.1893
2819,-0.00381,10.1893
2820,-0.0038,10.2227
2821,-0.00379,10.206
2822,-0.00378,10.2394
2823,-0.00377,10.2227
2824,-0.00376,10.2394
2825,-0.00375,10.2394
2826,-0.00374,10.2394
2827,-0.00373,10.2728
2828,-0.00372,10.2561
2829,-0.00371,10.2895
2830,-0.0037,10.2895
2831,-0.00369,10.2895
2832,-0.00368,10.2895
2833,-0.00367,10.3396
2834,-0.00366,10.3062
2835,-0.00365,10.3563
2836,-0.00364,10.3563
2837,-0.00363,10.3563
2838,-0.00362,10.373
2839,-0.00361,10.373
2840,-0.0036,10.3897
2841,-0.00359,10.3897
2842,-0.00358,10.4064
2843,-0.00357,10.4064
2844,-0.00356,10.4064
2845,-0.00355,10.4398
2846,-0.00354,10.4231
2847,-0.00353,10.4565
2848,-0.00352,10.4398
2849,-0.00351,10.4732
2850,-0.0035,10.4565
2851,-0.00349,10.4899
2852,-0.00348,10.4732
2853,-0.00347,10.4899
2854,-0.00346,10.4899
2855,-0.00345,10.4899
2856,-0.00344,10.5233
2857,-0.00343,10.5066
2858,-0.00342,10.5233
2859,-0.00341,10.5233
2860,-0.0034,10.54
2861,-0.00339,10.54
2862,-0.00338,10.5568
2863,-0.00337,10.5568
2864,-0.00336,10.5902
2865,-0.00335,10.5902
2866,-0.00334,10.6069
2867,-0.00333,10.6069
2868,-0.00332,10.6236
2869,-0.00331,10.6236
2870,-0.0033,10.6403
2871,-0.00329,10.6403
2872,-0.00328,10.657
2873,-0.00327,10.657
2874,-0.00326,10.6737
2875,-0.00325,10.6737
2876,-0.00324,10.6737
2877,-0.00323,10.7071
2878,-0.00322,10.6904
2879,-0.00321,10.7238
2880,-0.0032,10.7238
2881,-0.00319,10.7238
2882,-0.00318,10.7238
2883,-0.00317,10.7405
2884,-0.00316,10.7405
2885,-0.00315,10.7739
2886,-0.00314,10.7739
2887,-0.00313,10.7739
2888,-0.00312,10.7739
2889,-0.00311,10.7906
2890,-0.0031,10.7906
2891,-0.00309,10.8073
2892,-0.00308,10.8073
2893,-0.00307,10.8574
2894,-0.00306,10.8574
2895,-0.00305,10.8574
2896,-0.00304,10.8574
2897,-0.00303,10.8908
2898,-0.00302,10.8908
2899,-0.00301,10.8908
2900,-0.003,10.8908
2901,-0.00299,10.9075
2902,-0.00298,10.9075
2903,-0.00297,10.9075
2904,-0.00296,10.9409
2905,-0.00295,10.9242
2906,-0.00294,10.9576
2907,-0.00293,10.9409
2908,-0.00292,10.9743
2909,-0.00291,10.9743
2910,-0.0029,10.9743
2911,-0.00289,10.9743
2912,-0.00288,10.991
2913,-0.00287,10.991
2914,-0.00286,11.0078
2915,-0.00285,11.0078
2916,-0.00284,11.0245
2917,-0.00283,11.0245
2918,-0.00282,11.0412
2919,-0.00281,11.0579
2920,-0.0028,11.0579
2921,-0.00279,11.0913
2922,-0.00278,11.0913
2923,-0.00277,11.0913
2924,-0.00276,11.1247
2925,-0.00275,11.108
2926,-0.00274,11.1414
2927,-0.00273,11.1247
2928,-0.00272,11.1581
2929,-0.00271,11.1414
2930,-0.0027,11.1748
2931,-0.00269,11.1748
2932,-0.00268,11.1748
2933,-0.00267,11.1915
2934,-0.00266,11.1915
2935,-0.00265,11.2082
2936,-0.00264,11.2082
2937,-0.00263,11.2082
2938,-0.00262,11.2249
2939,-0.00261,11.2249
2940,-0.0026,11.2416
2941,-0.00259,11.2416
2942,-0.00258,11.2416
2943,-0.00257,11.2416
2944,-0.00256,11.275
2945,-0.00255,11.275
2946,-0.00254,11.275
2947,-0.00253,11.275
2948,-0.00252,11.3251
2949,-0.00251,11.3251
2950,-0.0025,11.3418
2951,-0.00249,11.3418
2952,-0.00248,11.3585
2953,-0.00247,11.3585
2954,-0.00246,11.3752
2955,-0.00245,11.3752
2956,-0.00244,11.3919
2957,-0.00243,11.3919
2958,-0.00242,11.3919
2959,-0.00241,11.3919
2960,-0.0024,11.4253
2961,-0.00239,11.4253
2962,-0.00238,11.442
2963,-0.00237,11.442
2964,-0.00236,11.442
2965,-0.00235,11.4588
2966,-0.00234,11.442
2967,-0.00233,11.4755
2968,-0.00232,11.4755
2969,-0.00231,11.4922
2970,-0.0023,11.4755
2971,-0.00229,11.5089
2972,-0.00228,11.5089
2973,-0.00227,11.5256
2974,-0.00226,11.5089
2975,-0.00225,11.5423
2976,-0.00224,11.5256
2977,-0.00223,11.5757
2978,-0.00222,11.5423
2979,-0.00221,11.5924
2980,-0.0022,11.5757
2981,-0.00219,11.6091
2982,-0.00218,11.5924
2983,-0.00217,11.6258
2984,-0.00216,11.6091
2985,-0.00215,11.6425
2986,-0.00214,11.6258
2987,-0.00213,11.6592
2988,-0.00212,11.6592
2989,-0.00211,11.6592
2990,-0.0021,11.6759
2991,-0.00209,11.6759
2992,-0.00208,11.6926
2993,-0.00207,11.6759
2994,-0.00206,11.7093
2995,-0.00205,11.6926
2996,-0.00204,11.726
2997,-0.00203,11.7093
2998,-0.00202,11.7427
2999,-0.00201,11.726
3000,-0.002,11.7594
3001,-0.00199,11.7427
3002,-0.00198,11.7761
3003,-0.00197,11.7594
3004,-0.00196,11.7928
3005,-0.00195,11.7928
3006,-0.00194,11.8262
3007,-0.00193,11.8262
3008,-0.00192,11.8262
3009,-0.00191,11.8429
3010,-0.0019,11.8429
3011,-0.00189,11.8596
3012,-0.00188,11.8596
3013,-0.00187,11.8763
3014,-0.00186,11.8763
3015,-0.00185,11.893
3016,-0.00184,11.893
3017,-0.00183,11.893
3018,-0.00182,11.9265
3019,-0.00181,11.9265
3020,-0.0018,11.9265
3021,-0.00179,11.9432
3022,-0.00178,11.9265
3023,-0.00177,11.9599
3024,-0.00176,11.9432
3025,-0.00175,11.9766
3026,-0.00174,11.9766
3027,-0.00173,11.9766
3028,-0.00172,11.9933
3029,-0.00171,11.9933
3030,-0.0017,12.01
3031,-0.00169,12.01
3032,-0.00168,12.0267
3033,-0.00167,12.0267
3034,-0.00166,12.0601
3035,-0.00165,12.0601
3036,-0.00164,12.0768
3037,-0.00163,12.0935
3038,-0.00162,12.0935
3039,-0.00161,12.1102
3040,-0.0016,12.0935
3041,-0.00159,12.1269
3042,-0.00158,12.1269
3043,-0.00157,12.1102
3044,-0.00156,12.1436
3045,-0.00155,12.1269
3046,-0.00154,12.1603
3047,-0.00153,12.1436
3048,-0.00152,12.177
3049,-0.00151,12.1603
3050,-0.0015,12.1937
3051,-0.00149,12.177
3052,-0.00148,12.2104
3053,-0.00147,12.2104
3054,-0.00146,12.2104
3055,-0.00145,12.2271
3056,-0.00144,12.2271
3057,-0.00143,12.2438
3058,-0.00142,12.2271
3059,-0.00141,12.2605
3060,-0.0014,12.2438
3061,-0.00139,12.2772
3062,-0.00138,12.2605
3063,-0.00137,12.3106
3064,-0.00136,12.2772
3065,-0.00135,12.3273
3066,-0.00134,12.3106
3067,-0.00133,12.3441
3068,-0.00132,12.3273
3069,-0.00131,12.3608
3070,-0.0013,12.3441
3071,-0.00129,12.2438
3072,-0.00128,10.6236
3073,-0.00127,-0.0334074
3074,-0.00126,-0.618038
3075,-0.00125,-0.701556
3076,-0.00124,-0.651445
3077,-0.00123,-0.567927
3078,-0.00122,-0.534519
3079,-0.00121,-0.467704
3080,-0.0012,-0.434297
3081,-0.00119,-0.400889
3082,-0.00118,-0.384186
3083,-0.00117,-0.350778
3084,-0.00116,-0.334074
3085,-0.00115,-0.334074
3086,-0.00114,-0.26726
3087,-0.00113,-0.0668149
3088,-0.00112,-0.0501112
3089,-0.00111,-0.0668149
3090,-0.0011,-0.0668149
3091,-0.00109,-0.0668149
3092,-0.00108,-0.0668149
3093,-0.00107,-0.0668149
3094,-0.00106,-0.0668149
3095,-0.00105,-0.0668149
3096,-0.00104,-0.0668149
3097,-0.00103,-0.0668149
3098,-0.00102,-0.0668149
3099,-0.00101,-0.0668149
3100,-0.001,-0.0668149
3101,-0.00099,-0.0668149
3102,-0.00098,-0.0668149
3103,-0.00097,-0.0668149
3104,-0.00096,-0.0668149
3105,-0.00095,-0.0668149
3106,-0.00094,-0.0668149
3107,-0.00093,-0.0668149
3108,-0.00092,-0.0668149
3109,-0.00091,-0.0668149
3110,-0.0009,-0.0668149
3111,-0.00089,-0.0668149
3112,-0.00088,-0.0668149
3113,-0.00087,-0.0668149
3114,-0.00086,-0.0668149
3115,-0.00085,-0.0668149
3116,-0.00084,-0.0668149
3117,-0.00083,-0.0668149
3118,-0.00082,-0.0668149
3119,-0.00081,-0.0668149
3120,-0.0008,-0.0668149
3121,-0.00079,-0.0668149
3122,-0.00078,-0.0668149
3123,-0.00077,-0.0668149
3124,-0.00076,-0.0668149
3125,-0.00075,-0.0668149
3126,-0.00074,-0.0668149
3127,-0.00073,-0.0668149
3128,-0.00072,-0.0668149
3129,-0.00071,-0.0668149
3130,-0.0007,-0.0501112
3131,-0.00069,-0.0668149
3132,-0.00068,-0.0668149
3133,-0.00067,-0.0668149
3134,-0.00066,-0.0668149
3135,-0.00065,-0.0668149
3136,-0.00064,-0.0668149
3137,-0.00063,-0.0668149
3138,-0.00062,-0.0668149
3139,-0.00061,-0.0668149
3140,-0.0006,-0.0668149
3141,-0.00059,-0.0668149
3142,-0.00058,-0.0668149
3143,-0.00057,-0.0668149
3144,-0.00056,-0.0668149
3145,-0.00055,-0.0668149
3146,-0.00054,-0.0668149
3147,-0.00053,-0.0668149
3148,-0.00052,-0.0668149
3149,-0.00051,-0.0668149
3150,-0.0005,-0.0668149
3151,-0.00049,-0.0668149
3152,-0.00048,-0.0501112
3153,-0.00047,-0.0668149
3154,-0.00046,-0.0668149
3155,-0.00045,-0.0668149
3156,-0.00044,-0.0668149
3157,-0.00043,-0.0668149
3158,-0.00042,-0.0668149
3159,-0.00041,-0.0668149
3160,-0.0004,-0.0668149
3161,-0.00039,-0.0668149
3162,-0.00038,-0.0668149
3163,-0.00037,-0.0668149
3164,-0.00036,-0.0668149
3165,-0.00035,-0.0668149
3166,-0.00034,-0.0668149
3167,-0.00033,-0.0668149
3168,-0.00032,-0.0668149
3169,-0.00031,-0.0668149
3170,-0.0003,-0.0668149
3171,-0.00029,-0.0668149
3172,-0.00028,-0.0668149
3173,-0.00027,-0.0668149
3174,-0.00026,-0.0668149
3175,-0.00025,-0.0668149
3176,-0.00024,-0.0668149
3177,-0.00023,-0.0668149
3178,-0.00022,-0.0668149
3179,-0.00021,-0.0668149
3180,-0.0002,-0.0668149
3181,-0.00019,-0.0668149
3182,-0.00018,-0.0668149
3183,-0.00017,-0.0668149
3184,-0.00016,-0.0668149
3185,-0.00015,-0.0668149
3186,-0.00014,-0.0668149
3187,-0.00013,-0.0668149
3188,-0.00012,-0.0668149
3189,-0.00011,-0.0668149
3190,-0.0001,-0.0668149
3191,-9e-05,-0.0668149
3192,-8e-05,-0.0668149
3193,-7e-05,-0.0668149
3194,-6e-05,-0.0668149
3195,-5e-05,-0.0668149
3196,-4e-05,-0.0668149
3197,-3e-05,-0.0668149
3198,-2e-05,-0.0334074
3199,-1e-05,-0.0501112
3200,0,-0.0501112
3201,1e-05,0
3202,2e-05,-0.0334074
3203,3e-05,0.0167037
3204,4e-05,0.0167037
3205,5e-05,0.0167037
3206,6e-05,0.0501112
3207,7e-05,0.0668149
3208,8e-05,0.0668149
3209,9e-05,0.0668149
3210,0.0001,0.0668149
3211,0.00011,0.100222
3212,0.00012,0.116926
3213,0.00013,0.116926
3214,0.00014,0.116926
3215,0.00015,0.13363
3216,0.00016,0.13363
3217,0.00017,0.150333
3218,0.00018,0.150333
3219,0.00019,0.150333
3220,0.0002,0.183741
3221,0.00021,0.183741
3222,0.00022,0.183741
3223,0.00023,0.167037
3224,0.00024,0.200445
3225,0.00025,0.200445
3226,0.00026,0.217148
3227,0.00027,0.217148
3228,0.00028,0.250556
3229,0.00029,0.250556
3230,0.0003,0.26726
3231,0.00031,0.26726
3232,0.00032,0.26726
3233,0.00033,0.300667
3234,0.00034,0.283963
3235,0.00035,0.317371
3236,0.00036,0.300667
3237,0.00037,0.334074
3238,0.00038,0.334074
3239,0.00039,0.334074
3240,0.0004,0.367482
3241,0.00041,0.384186
3242,0.00042,0.367482
3243,0.00043,0.400889
3244,0.00044,0.400889
3245,0.00045,0.417593
3246,0.00046,0.417593
3247,0.00047,0.417593
3248,0.00048,0.434297
3249,0.00049,0.417593
3250,0.0005,0.451
3251,0.00051,0.451
3252,0.00052,0.451
3253,0.00053,0.467704
3254,0.00054,0.467704
3255,0.00055,0.467704
3256,0.00056,0.517815
3257,0.00057,0.501112
3258,0.00058,0.534519
3259,0.00059,0.534519
3260,0.0006,0.551223
3261,0.00061,0.551223
3262,0.00062,0.551223
3263,0.00063,0.58463
3264,0.00064,0.58463
3265,0.00065,0.58463
3266,0.00066,0.601334
3267,0.00067,0.601334
3268,0.00068,0.618038
3269,0.00069,0.618038
3270,0.0007,0.618038
3271,0.00071,0.651445
3272,0.00072,0.651445
3273,0.00073,0.651445
3274,0.00074,0.668149
3275,0.00075,0.684853
3276,0.00076,0.668149
3277,0.00077,0.701556
3278,0.00078,0.684853
3279,0.00079,0.71826
3280,0.0008,0.701556
3281,0.00081,0.751667
3282,0.00082,0.71826
3283,0.00083,0.768371
3284,0.00084,0.751667
3285,0.00085,0.785075
3286,0.00086,0.785075
3287,0.00087,0.801779
3288,0.00088,0.801779
3289,0.00089,0.818482
3290,0.0009,0.818482
3291,0.00091,0.835186
3292,0.00092,0.835186
3293,0.00093,0.85189
3294,0.00094,0.85189
3295,0.00095,0.868594
3296,0.00096,0.868594
3297,0.00097,0.885297
3298,0.00098,0.885297
3299,0.00099,0.885297
3300,0.001,0.918705
3301,0.00101,0.902001
3302,0.00102,0.935408
3303,0.00103,0.918705
3304,0.00104,0.952112
3305,0.00105,0.952112
3306,0.00106,0.952112
3307,0.00107,0.98552
3308,0.00108,0.98552
3309,0.00109,0.98552
3310,0.0011,1.01893
3311,0.00111,1.01893
3312,0.00112,1.03563
3313,0.00113,1.03563
3314,0.00114,1.03563
3315,0.00115,1.06904
3316,0.00116,1.06904
3317,0.00117,1.06904
3318,0.00118,1.08574
3319,0.00119,1.06904
3320,0.0012,1.10245
3321,0.00121,1.10245
3322,0.00122,1.11915
3323,0.00123,1.11915
3324,0.00124,1.13585
3325,0.00125,1.13585
3326,0.00126,1.15256
3327,0.00127,1.15256
3328,0.00128,1.15256
3329,0.00129,1.18596
3330,0.0013,1.16926
3331,0.00131,1.20267
3332,0.00132,1.18596
3333,0.00133,1.23608
3334,0.00134,1.20267
3335,0.00135,1.25278
3336,0.00136,1.23608
3337,0.00137,1.26948
3338,0.00138,1.25278
3339,0.00139,1.28619
3340,0.0014,1.26948
3341,0.00141,1.30289
3342,0.00142,1.30289
3343,0.00143,1.31959
3344,0.00144,1.30289
3345,0.00145,1.3363
3346,0.00146,1.3363
3347,0.00147,1.353
3348,0.00148,1.353
3349,0.00149,1.36971
3350,0.0015,1.36971
3351,0.00151,1.38641
3352,0.00152,1.38641
3353,0.00153,1.40311
3354,0.00154,1.40311
3355,0.00155,1.41982
3356,0.00156,1.41982
3357,0.00157,1.43652
3358,0.00158,1.43652
3359,0.00159,1.45322
3360,0.0016,1.45322
3361,0.00161,1.48663
3362,0.00162,1.48663
3363,0.00163,1.50333
3364,0.00164,1.50333
3365,0.00165,1.52004
3366,0.00166,1.52004
3367,0.00167,1.53674
3368,0.00168,1.53674
3369,0.00169,1.55345
3370,0.0017,1.55345
3371,0.00171,1.57015
3372,0.00172,1.57015
3373,0.00173,1.58685
3374,0.00174,1.58685
3375,0.00175,1.60356
3376,0.00176,1.60356
3377,0.00177,1.62026
3378,0.00178,1.62026
3379,0.00179,1.63696
3380,0.0018,1.63696
3381,0.00181,1.65367
3382,0.00182,1.65367
3383,0.00183,1.67037
3384,0.00184,1.67037
3385,0.00185,1.67037
3386,0.00186,1.70378
3387,0.00187,1.70378
3388,0.00188,1.70378
3389,0.00189,1.73719
3390,0.0019,1.73719
3391,0.00191,1.75389
3392,0.00192,1.77059
3393,0.00193,1.77059
3394,0.00194,1.7873
3395,0.00195,1.7873
3396,0.00196,1.804
3397,0.00197,1.804
3398,0.00198,1.82071
3399,0.00199,1.82071
3400,0.002,1.83741
3401,0.00201,1.83741
3402,0.00202,1.85411
3403,0.00203,1.87082
3404,0.00204,1.87082
3405,0.00205,1.87082
3406,0.00206,1.88752
3407,0.00207,1.90422
3408,0.00208,1.90422
3409,0.00209,1.92093
3410,0.0021,1.92093
3411,0.00211,1.93763
3412,0.00212,1.93763
3413,0.00213,1.93763
3414,0.00214,1.97104
3415,0.00215,1.97104
3416,0.00216,1.98774
3417,0.00217,1.98774
3418,0.00218,2.00445
3419,0.00219,2.00445
3420,0.0022,2.02115
3421,0.00221,2.02115
3422,0.00222,2.03785
3423,0.00223,2.03785
3424,0.00224,2.05456
3425,0.00225,2.05456
3426,0.00226,2.07126
3427,0.00227,2.10467
3428,0.00228,2.10467
3429,0.00229,2.10467
3430,0.0023,2.12137
3431,0.00231,2.12137
3432,0.00232,2.13808
3433,0.00233,2.13808
3434,0.00234,2.13808
3435,0.00235,2.15478
3436,0.00236,2.15478
3437,0.00237,2.17148
3438,0.00238,2.17148
3439,0.00239,2.18819
3440,0.0024,2.18819
3441,0.00241,2.2216
3442,0.00242,2.2216
3443,0.00243,2.2383
3444,0.00244,2.2383
3445,0.00245,2.255
3446,0.00246,2.255
3447,0.00247,2.27171
3448,0.00248,2.27171
3449,0.00249,2.30511
3450,0.0025,2.30511
3451,0.00251,2.30511
3452,0.00252,2.30511
3453,0.00253,2.33852
3454,0.00254,2.32182
3455,0.00255,2.35522
3456,0.00256,2.33852
3457,0.00257,2.35522
3458,0.00258,2.35522
3459,0.00259,2.38863
3460,0.0026,2.37193
3461,0.00261,2.40534
3462,0.00262,2.38863
3463,0.00263,2.42204
3464,0.00264,2.40534
3465,0.00265,2.43874
3466,0.00266,2.42204
3467,0.00267,2.47215
3468,0.00268,2.43874
3469,0.00269,2.48885
3470,0.0027,2.47215
3471,0.00271,2.48885
3472,0.00272,2.48885
3473,0.00273,2.52226
3474,0.00274,2.50556
3475,0.00275,2.52226
3476,0.00276,2.52226
3477,0.00277,2.53897
3478,0.00278,2.53897
3479,0.00279,2.55567
3480,0.0028,2.55567
3481,0.00281,2.57237
3482,0.00282,2.57237
3483,0.00283,2.58908
3484,0.00284,2.58908
3485,0.00285,2.60578
3486,0.00286,2.60578
3487,0.00287,2.62248
3488,0.00288,2.62248
3489,0.00289,2.63919
3490,0.0029,2.63919
3491,0.00291,2.65589
3492,0.00292,2.65589
3493,0.00293,2.6726
3494,0.00294,2.6726
3495,0.00295,2.6893
3496,0.00296,2.6893
3497,0.00297,2.72271
3498,0.00298,2.72271
3499,0.00299,2.73941
3500,0.003,2.73941
3501,0.00301,2.75611
3502,0.00302,2.75611
3503,0.00303,2.77282
3504,0.00304,2.77282
3505,0.00305,2.78952
3506,0.00306,2.78952
3507,0.00307,2.80623
3508,0.00308,2.80623
3509,0.00309,2.83963
3510,0.0031,2.82293
3511,0.00311,2.85634
3512,0.00312,2.83963
3513,0.00313,2.87304
3514,0.00314,2.85634
3515,0.00315,2.88974
3516,0.00316,2.87304
3517,0.00317,2.90645
3518,0.00318,2.88974
3519,0.00319,2.92315
3520,0.0032,2.92315
3521,0.00321,2.92315
3522,0.00322,2.92315
3523,0.00323,2.97326
3524,0.00324,2.95656
3525,0.00325,2.98997
3526,0.00326,2.97326
3527,0.00327,2.98997
3528,0.00328,2.98997
3529,0.00329,2.98997
3530,0.0033,3.02337
3531,0.00331,3.02337
3532,0.00332,3.02337
3533,0.00333,3.04008
3534,0.00334,3.04008
3535,0.00335,3.05678
3536,0.00336,3.05678
3537,0.00337,3.07348
3538,0.00338,3.07348
3539,0.00339,3.10689
3540,0.0034,3.09019
3541,0.00341,3.10689
3542,0.00342,3.1403
3543,0.00343,3.1236
3544,0.00344,3.157
3545,0.00345,3.1403
3546,0.00346,3.157
3547,0.00347,3.157
3548,0.00348,3.17371
3549,0.00349,3.17371
3550,0.0035,3.17371
3551,0.00351,3.22382
3552,0.00352,3.20711
3553,0.00353,3.24052
3554,0.00354,3.22382
3555,0.00355,3.25723
3556,0.00356,3.24052
3557,0.00357,3.27393
3558,0.00358,3.25723
3559,0.00359,3.29063
3560,0.0036,3.27393
3561,0.00361,3.30734
3562,0.00362,3.29063
3563,0.00363,3.32404
3564,0.00364,3.30734
3565,0.00365,3.34074
3566,0.00366,3.32404
3567,0.00367,3.35745
3568,0.00368,3.35745
3569,0.00369,3.35745
3570,0.0037,3.35745
3571,0.00371,3.39086
3572,0.00372,3.39086
3573,0.00373,3.39086
3574,0.00374,3.40756
3575,0.00375,3.40756
3576,0.00376,3.42426
3577,0.00377,3.42426
3578,0.00378,3.42426
3579,0.00379,3.47437
3580,0.0038,3.45767
3581,0.00381,3.49108
3582,0.00382,3.47437
3583,0.00383,3.50778
3584,0.00384,3.49108
3585,0.00385,3.52449
3586,0.00386,3.52449
3587,0.00387,3.52449
3588,0.00388,3.52449
3589,0.00389,3.55789
3590,0.0039,3.54119
3591,0.00391,3.5746
3592,0.00392,3.5746
3593,0.00393,3.5746
3594,0.00394,3.5746
3595,0.00395,3.5913
3596,0.00396,3.5913
3597,0.00397,3.62471
3598,0.00398,3.608
3599,0.00399,3.64141
3600,0.004,3.62471
3601,0.00401,3.65811
3602,0.00402,3.65811
3603,0.00403,3.65811
3604,0.00404,3.65811
3605,0.00405,3.70823
3606,0.00406,3.67482
3607,0.00407,3.72493
3608,0.00408,3.70823
3609,0.00409,3.74163
3610,0.0041,3.72493
3611,0.00411,3.75834
3612,0.00412,3.75834
3613,0.00413,3.75834
3614,0.00414,3.77504
3615,0.00415,3.77504
3616,0.00416,3.79174
3617,0.00417,3.79174
3618,0.00418,3.80845
3619,0.00419,3.80845
3620,0.0042,3.82515
3621,0.00421,3.82515
3622,0.00422,3.84186
3623,0.00423,3.84186
3624,0.00424,3.84186
3625,0.00425,3.87526
3626,0.00426,3.87526
3627,0.00427,3.87526
3628,0.00428,3.87526
3629,0.00429,3.90867
3630,0.0043,3.89197
3631,0.00431,3.94208
3632,0.00432,3.90867
3633,0.00433,3.95878
3634,0.00434,3.95878
3635,0.00435,3.95878
3636,0.00436,3.97549
3637,0.00437,3.97549
3638,0.00438,3.97549
3639,0.00439,3.97549
3640,0.0044,4.00889
3641,0.00441,4.00889
3642,0.00442,4.0256
3643,0.00443,4.0256
3644,0.00444,4.0256
3645,0.00445,4.059
3646,0.00446,4.059
3647,0.00447,4.059
3648,0.00448,4.09241
3649,0.00449,4.07571
3650,0.0045,4.10912
3651,0.00451,4.09241
3652,0.00452,4.12582
3653,0.00453,4.12582
3654,0.00454,4.12582
3655,0.00455,4.12582
3656,0.00456,4.14252
3657,0.00457,4.14252
3658,0.00458,4.15923
3659,0.00459,4.15923
3660,0.0046,4.19263
3661,0.00461,4.19263
3662,0.00462,4.20934
3663,0.00463,4.20934
3664,0.00464,4.22604
3665,0.00465,4.20934
3666,0.00466,4.24275
3667,0.00467,4.24275
3668,0.00468,4.24275
3669,0.00469,4.27615
3670,0.0047,4.27615
3671,0.00471,4.29286
3672,0.00472,4.27615
3673,0.00473,4.30956
3674,0.00474,4.30956
3675,0.00475,4.30956
3676,0.00476,4.30956
3677,0.00477,4.34297
3678,0.00478,4.32626
3679,0.00479,4.35967
3680,0.0048,4.35967
3681,0.00481,4.35967
3682,0.00482,4.37638
3683,0.00483,4.37638
3684,0.00484,4.37638
3685,0.00485,4.40978
3686,0.00486,4.40978
3687,0.00487,4.40978
3688,0.00488,4.40978
3689,0.00489,4.45989
3690,0.0049,4.45989
3691,0.00491,4.45989
3692,0.00492,4.4766
3693,0.00493,4.45989
3694,0.00494,4.4933
3695,0.00495,4.4766
3696,0.00496,4.51
3697,0.00497,4.4933
3698,0.00498,4.52671
3699,0.00499,4.52671
3700,0.005,4.54341
3701,0.00501,4.54341
3702,0.00502,4.56012
3703,0.00503,4.56012
3704,0.00504,4.57682
3705,0.00505,4.57682
3706,0.00506,4.59352
3707,0.00507,4.59352
3708,0.00508,4.61023
3709,0.00509,4.61023
3710,0.0051,4.62693
3711,0.00511,4.62693
3712,0.00512,4.64363
3713,0.00513,4.64363
3714,0.00514,4.67704
3715,0.00515,4.67704
3716,0.00516,4.69375
3717,0.00517,4.69375
3718,0.00518,4.71045
3719,0.00519,4.71045
3720,0.0052,4.72715
3721,0.00521,4.71045
3722,0.00522,4.74386
3723,0.00523,4.72715
3724,0.00524,4.76056
3725,0.00525,4.74386
3726,0.00526,4.77726
3727,0.00527,4.76056
3728,0.00528,4.79397
3729,0.00529,4.79397
3730,0.0053,4.81067
3731,0.00531,4.81067
3732,0.00532,4.82738
3733,0.00533,4.82738
3734,0.00534,4.84408
3735,0.00535,4.82738
3736,0.00536,4.86078
3737,0.00537,4.86078
3738,0.00538,4.87749
3739,0.00539,4.87749
3740,0.0054,4.89419
3741,0.00541,4.87749
3742,0.00542,4.9276
3743,0.00543,4.89419
3744,0.00544,4.9443
3745,0.00545,4.9276
3746,0.00546,4.96101
3747,0.00547,4.9443
3748,0.00548,4.97771
3749,0.00549,4.97771
3750,0.0055,4.97771
3751,0.00551,4.99441
3752,0.00552,4.99441
3753,0.00553,5.01112
3754,0.00554,5.01112
3755,0.00555,5.02782
3756,0.00556,5.02782
3757,0.00557,5.04452
3758,0.00558,5.04452
3759,0.00559,5.06123
3760,0.0056,5.06123
3761,0.00561,5.07793
3762,0.00562,5.07793
3763,0.00563,5.09464
3764,0.00564,5.11134
3765,0.00565,5.11134
3766,0.00566,5.11134
3767,0.00567,5.14475
3768,0.00568,5.14475
3769,0.00569,5.14475
3770,0.0057,5.17815
3771,0.00571,5.17815
3772,0.00572,5.17815
3773,0.00573,5.19486
3774,0.00574,5.19486
3775,0.00575,5.21156
3776,0.00576,5.21156
3777,0.00577,5.22826
3778,0.00578,5.22826
3779,0.00579,5.24497
3780,0.0058,5.24497
3781,0.00581,5.26167
3782,0.00582,5.26167
3783,0.00583,5.27838
3784,0.00584,5.27838
3785,0.00585,5.29508
3786,0.00586,5.29508
3787,0.00587,5.31178
3788,0.00588,5.31178
3789,0.00589,5.32849
3790,0.0059,5.32849
3791,0.00591,5.34519
3792,0.00592,5.34519
3793,0.00593,5.36189
3794,0.00594,5.36189
3795,0.00595,5.3786
3796,0.00596,5.3786
3797,0.00597,5.3953
3798,0.00598,5.3953
3799,0.00599,5.42871
3800,0.006,5.42871
3801,0.00601,5.44541
3802,0.00602,5.44541
3803,0.00603,5.46212
3804,0.00604,5.46212
3805,0.00605,5.47882
3806,0.00606,5.47882
3807,0.00607,5.47882
3808,0.00608,5.49552
3809,0.00609,5.49552
3810,0.0061,5.51223
3811,0.00611,5.52893
3812,0.00612,5.52893
3813,0.00613,5.54564
3814,0.00614,5.54564
3815,0.00615,5.56234
3816,0.00616,5.56234
3817,0.00617,5.57904
3818,0.00618,5.57904
3819,0.00619,5.59575
3820,0.0062,5.59575
3821,0.00621,5.61245
3822,0.00622,5.61245
3823,0.00623,5.62915
3824,0.00624,5.62915
3825,0.00625,5.66256
3826,0.00626,5.66256
3827,0.00627,5.67927
3828,0.00628,5.67927
3829,0.00629,5.69597
3830,0.0063,5.69597
3831,0.00631,5.71267
3832,0.00632,5.71267
3833,0.00633,5.72938
3834,0.00634,5.72938
3835,0.00635,5.74608
3836,0.00636,5.74608
3837,0.00637,5.76278
3838,0.00638,5.76278
3839,0.00639,5.77949
3840,0.0064,5.77949
3841,0.00641,5.79619
3842,0.00642,5.79619
3843,0.00643,5.8129
3844,0.00644,5.8129
3845,0.00645,5.8296
3846,0.00646,5.8296
3847,0.00647,5.8296
3848,0.00648,5.8463
3849,0.00649,5.8463
3850,0.0065,5.86301
3851,0.00651,5.86301
3852,0.00652,5.87971
3853,0.00653,5.91312
3854,0.00654,5.91312
3855,0.00655,5.92982
3856,0.00656,5.92982
3857,0.00657,5.94652
3858,0.00658,5.94652
3859,0.00659,5.94652
3860,0.0066,5.96323
3861,0.00661,5.96323
3862,0.00662,5.97993
3863,0.00663,5.97993
3864,0.00664,5.99664
3865,0.00665,5.99664
3866,0.00666,6.01334
3867,0.00667,6.01334
3868,0.00668,6.03004
3869,0.00669,6.03004
3870,0.0067,6.04675
3871,0.00671,6.04675
3872,0.00672,6.06345
3873,0.00673,6.08015
3874,0.00674,6.08015
3875,0.00675,6.09686
3876,0.00676,6.09686
3877,0.00677,6.11356
3878,0.00678,6.11356
3879,0.00679,6.11356
3880,0.0068,6.13027
3881,0.00681,6.13027
3882,0.00682,6.16367
3883,0.00683,6.16367
3884,0.00684,6.18038
3885,0.00685,6.18038
3886,0.00686,6.19708
3887,0.00687,6.19708
3888,0.00688,6.21378
3889,0.00689,6.21378
3890,0.0069,6.23049
3891,0.00691,6.23049
3892,0.00692,6.24719
3893,0.00693,6.24719
3894,0.00694,6.2639
3895,0.00695,6.2639
3896,0.00696,6.2806
3897,0.00697,6.2806
3898,0.00698,6.2973
3899,0.00699,6.2973
3900,0.007,6.31401
3901,0.00701,6.31401
3902,0.00702,6.33071
3903,0.00703,6.33071
3904,0.00704,6.34741
3905,0.00705,6.34741
3906,0.00706,6.36412
3907,0.00707,6.36412
3908,0.00708,6.38082
3909,0.00709,6.38082
3910,0.0071,6.41423
3911,0.00711,6.41423
3912,0.00712,6.43093
3913,0.00713,6.43093
3914,0.00714,6.44764
3915,0.00715,6.44764
3916,0.00716,6.44764
3917,0.00717,6.48104
3918,0.00718,6.46434
3919,0.00719,6.49775
3920,0.0072,6.48104
3921,0.00721,6.51445
3922,0.00722,6.49775
3923,0.00723,6.51445
3924,0.00724,6.51445
3925,0.00725,6.51445
3926,0.00726,6.54786
3927,0.00727,6.54786
3928,0.00728,6.54786
3929,0.00729,6.54786
3930,0.0073,6.58127
3931,0.00731,6.56456
3932,0.00732,6.59797
3933,0.00733,6.58127
3934,0.00734,6.61467
3935,0.00735,6.59797
3936,0.00736,6.64808
3937,0.00737,6.64808
3938,0.00738,6.64808
3939,0.00739,6.66478
3940,0.0074,6.66478
3941,0.00741,6.68149
3942,0.00742,6.68149
3943,0.00743,6.68149
3944,0.00744,6.7149
3945,0.00745,6.7149
3946,0.00746,6.7149
3947,0.00747,6.7149
3948,0.00748,6.7483
3949,0.00749,6.7316
3950,0.0075,6.76501
3951,0.00751,6.7483
3952,0.00752,6.78171
3953,0.00753,6.76501
3954,0.00754,6.79841
3955,0.00755,6.78171
3956,0.00756,6.79841
3957,0.00757,6.79841
3958,0.00758,6.81512
3959,0.00759,6.81512
3960,0.0076,6.83182
3961,0.00761,6.83182
3962,0.00762,6.84853
3963,0.00763,6.84853
3964,0.00764,6.89864
3965,0.00765,6.86523
3966,0.00766,6.89864
3967,0.00767,6.89864
3968,0.00768,6.93204
3969,0.00769,6.91534
3970,0.0077,6.93204
3971,0.00771,6.93204
3972,0.00772,6.94875
3973,0.00773,6.94875
3974,0.00774,6.94875
3975,0.00775,6.98216
3976,0.00776,6.96545
3977,0.00777,6.99886
3978,0.00778,6.98216
3979,0.00779,7.01556
3980,0.0078,6.99886
3981,0.00781,7.03227
3982,0.00782,7.01556
3983,0.00783,7.04897
3984,0.00784,7.04897
3985,0.00785,7.04897
3986,0.00786,7.04897
3987,0.00787,7.08238
3988,0.00788,7.06567
3989,0.00789,7.09908
3990,0.0079,7.09908
3991,0.00791,7.09908
3992,0.00792,7.09908
3993,0.00793,7.14919
3994,0.00794,7.14919
3995,0.00795,7.14919
3996,0.00796,7.1659
3997,0.00797,7.1659
3998,0.00798,7.1826
3999,0.00799,7.1826
4000,0.008,7.1826
4001,0.00801,7.21601
4002,0.00802,7.1993
4003,0.00803,7.23271
4004,0.00804,7.21601
4005,0.00805,7.24941
4006,0.00806,7.24941
4007,0.00807,7.24941
4008,0.00808,7.24941
4009,0.00809,7.26612
4010,0.0081,7.26612
4011,0.00811,7.28282
4012,0.00812,7.28282
4013,0.00813,7.28282
4014,0.00814,7.31623
4015,0.00815,7.31623
4016,0.00816,7.31623
4017,0.00817,7.33293
4018,0.00818,7.33293
4019,0.00819,7.34964
4020,0.0082,7.34964
4021,0.00821,7.39975
4022,0.00822,7.39975
4023,0.00823,7.39975
4024,0.00824,7.39975
4025,0.00825,7.43316
4026,0.00826,7.43316
4027,0.00827,7.43316
4028,0.00828,7.43316
4029,0.00829,7.43316
4030,0.0083,7.46656
4031,0.00831,7.44986
4032,0.00832,7.48327
4033,0.00833,7.46656
4034,0.00834,7.49997
4035,0.00835,7.48327
4036,0.00836,7.51667
4037,0.00837,7.49997
4038,0.00838,7.53338
4039,0.00839,7.51667
4040,0.0084,7.55008
4041,0.00841,7.53338
4042,0.00842,7.56679
4043,0.00843,7.55008
4044,0.00844,7.58349
4045,0.00845,7.56679
4046,0.00846,7.60019
4047,0.00847,7.58349
4048,0.00848,7.6336
4049,0.00849,7.60019
4050,0.0085,7.6503
4051,0.00851,7.6503
4052,0.00852,7.6503
4053,0.00853,7.66701
4054,0.00854,7.66701
4055,0.00855,7.66701
4056,0.00856,7.66701
4057,0.00857,7.70042
4058,0.00858,7.68371
4059,0.00859,7.71712
4060,0.0086,7.70042
4061,0.00861,7.73382
4062,0.00862,7.71712
4063,0.00863,7.75053
4064,0.00864,7.75053
4065,0.00865,7.76723
4066,0.00866,7.75053
4067,0.00867,7.78393
4068,0.00868,7.78393
4069,0.00869,7.80064
4070,0.0087,7.78393
4071,0.00871,7.81734
4072,0.00872,7.80064
4073,0.00873,7.83405
4074,0.00874,7.83405
4075,0.00875,7.83405
4076,0.00876,7.85075
4077,0.00877,7.85075
4078,0.00878,7.85075
4079,0.00879,7.90086
4080,0.0088,7.90086
4081,0.00881,7.90086
4082,0.00882,7.90086
4083,0.00883,7.93427
4084,0.00884,7.93427
4085,0.00885,7.93427
4086,0.00886,7.95097
4087,0.00887,7.93427
4088,0.00888,7.96768
4089,0.00889,7.95097
4090,0.0089,7.98438
4091,0.00891,7.98438
4092,0.00892,7.98438
4093,0.00893,8.00108
4094,0.00894,8.00108
4095,0.00895,8.01779
4096,0.00896,8.01779
4097,0.00897,8.01779
4098,0.00898,8.05119
4099,0.00899,8.0679
4100,0.009,8.0679
4101,0.00901,8.0846
4102,0.00902,8.0679
4103,0.00903,8.10131
4104,0.00904,8.0846
4105,0.00905,8.13471
4106,0.00906,8.13471
4107,0.00907,8.13471
4108,0.00908,8.13471
4109,0.00909,8.15142
4110,0.0091,8.15142
4111,0.00911,8.16812
4112,0.00912,8.16812
4113,0.00913,8.18482
4114,0.00914,8.18482
4115,0.00915,8.20153
4116,0.00916,8.20153
4117,0.00917,8.21823
4118,0.00918,8.21823
4119,0.00919,8.23493
4120,0.0092,8.23493
4121,0.00921,8.25164
4122,0.00922,8.25164
4123,0.00923,8.25164
4124,0.00924,8.28505
4125,0.00925,8.26834
4126,0.00926,8.30175
4127,0.00927,8.28505
4128,0.00928,8.31845
4129,0.00929,8.31845
4130,0.0093,8.30175
4131,0.00931,8.33516
4132,0.00932,8.33516
4133,0.00933,8.36856
4134,0.00934,8.36856
4135,0.00935,8.38527
4136,0.00936,8.36856
4137,0.00937,8.40197
4138,0.00938,8.40197
4139,0.00939,8.41868
4140,0.0094,8.40197
4141,0.00941,8.43538
4142,0.00942,8.43538
4143,0.00943,8.45208
4144,0.00944,8.43538
4145,0.00945,8.46879
4146,0.00946,8.46879
4147,0.00947,8.46879
4148,0.00948,8.48549
4149,0.00949,8.48549
4150,0.0095,8.50219
4151,0.00951,8.50219
4152,0.00952,8.5189
4153,0.00953,8.5189
4154,0.00954,8.5356
4155,0.00955,8.5356
4156,0.00956,8.55231
4157,0.00957,8.55231
4158,0.00958,8.56901
4159,0.00959,8.55231
4160,0.0096,8.58571
4161,0.00961,8.58571
4162,0.00962,8.61912
4163,0.00963,8.61912
4164,0.00964,8.63582
4165,0.00965,8.63582
4166,0.00966,8.65253
4167,0.00967,8.63582
4168,0.00968,8.66923
4169,0.00969,8.65253
4170,0.0097,8.68594
4171,0.00971,8.66923
4172,0.00972,8.70264
4173,0.00973,8.70264
4174,0.00974,8.70264
4175,0.00975,8.71934
4176,0.00976,8.71934
4177,0.00977,8.73605
4178,0.00978,8.73605
4179,0.00979,8.75275
4180,0.0098,8.75275
4181,0.00981,8.76945
4182,0.00982,8.76945
4183,0.00983,8.78616
4184,0.00984,8.78616
4185,0.00985,8.80286
4186,0.00986,8.80286
4187,0.00987,8.81956
4188,0.00988,8.81956
4189,0.00989,8.81956
4190,0.0099,8.86968
4191,0.00991,8.86968
4192,0.00992,8.86968
4193,0.00993,8.88638
4194,0.00994,8.88638
4195,0.00995,8.90308
4196,0.00996,8.90308
4197,0.00997,8.91979
4198,0.00998,8.91979
4199,0.00999,8.93649
4200,0.01,8.93649
4201,0.01001,8.95319
4202,0.01002,8.95319
4203,0.01003,8.9699
4204,0.01004,8.9699
4205,0.01005,8.9699
4206,0.01006,8.9866
4207,0.01007,8.9866
4208,0.01008,9.00331
4209,0.01009,9.00331
4210,0.0101,9.02001
4211,0.01011,9.02001
4212,0.01012,9.03671
4213,0.01013,9.03671
4214,0.01014,9.05342
4215,0.01015,9.05342
4216,0.01016,9.05342
4217,0.01017,9.08682
4218,0.01018,9.08682
4219,0.01019,9.12023
4220,0.0102,9.12023
4221,0.01021,9.13694
4222,0.01022,9.13694
4223,0.01023,9.15364
4224,0.01024,9.15364
4225,0.01025,9.15364
4226,0.01026,9.17034
4227,0.01027,9.17034
4228,0.01028,9.18705
4229,0.01029,9.18705
4230,0.0103,9.20375
4231,0.01031,9.20375
4232,0.01032,9.22045
4233,0.01033,9.22045
4234,0.01034,9.23716
4235,0.01035,9.23716
4236,0.01036,9.25386
4237,0.01037,9.25386
4238,0.01038,9.27057
4239,0.01039,9.27057
4240,0.0104,9.28727
4241,0.01041,9.28727
4242,0.01042,9.30397
4243,0.01043,9.30397
4244,0.01044,9.32068
4245,0.01045,9.32068
4246,0.01046,9.35408
4247,0.01047,9.35408
4248,0.01048,9.37079
4249,0.01049,9.37079
4250,0.0105,9.38749
4251,0.01051,9.38749
4252,0.01052,9.40419
4253,0.01053,9.40419
4254,0.01054,9.4209
4255,0.01055,9.4209
4256,0.01056,9.4209
4257,0.01057,9.4376
4258,0.01058,9.4376
4259,0.01059,9.45431
4260,0.0106,9.45431
4261,0.01061,9.47101
4262,0.01062,9.47101
4263,0.01063,9.47101
4264,0.01064,9.48771
4265,0.01065,9.48771
4266,0.01066,9.50442
4267,0.01067,9.50442
4268,0.01068,9.53782
4269,0.01069,9.53782
4270,0.0107,9.53782
4271,0.01071,9.55453
4272,0.01072,9.55453
4273,0.01073,9.55453
4274,0.01074,9.57123
4275,0.01075,9.57123
4276,0.01076,9.60464
4277,0.01077,9.60464
4278,0.01078,9.62134
4279,0.01079,9.62134
4280,0.0108,9.63805
4281,0.01081,9.63805
4282,0.01082,9.65475
4283,0.01083,9.65475
4284,0.01084,9.67145
4285,0.01085,9.67145
4286,0.01086,9.68816
4287,0.01087,9.68816
4288,0.01088,9.72157
4289,0.01089,9.70486
4290,0.0109,9.72157
4291,0.01091,9.72157
4292,0.01092,9.73827
4293,0.01093,9.73827
4294,0.01094,9.75497
4295,0.01095,9.75497
4296,0.01096,9.77168
4297,0.01097,9.77168
4298,0.01098,9.77168
4299,0.01099,9.80508
4300,0.011,9.78838
4301,0.01101,9.82179
4302,0.01102,9.80508
4303,0.01103,9.82179
4304,0.01104,9.82179
4305,0.01105,9.8719
4306,0.01106,9.8552
4307,0.01107,9.8886
4308,0.01108,9.8719
4309,0.01109,9.90531
4310,0.0111,9.90531
4311,0.01111,9.90531
4312,0.01112,9.90531
4313,0.01113,9.93871
4314,0.01114,9.92201
4315,0.01115,9.95542
4316,0.01116,9.93871
4317,0.01117,9.95542
4318,0.01118,9.95542
4319,0.01119,9.95542
4320,0.0112,9.98883
4321,0.01121,9.97212
4322,0.01122,9.98883
4323,0.01123,9.98883
4324,0.01124,10.0222
4325,0.01125,10.0055
4326,0.01126,10.0389
4327,0.01127,10.0222
4328,0.01128,10.0556
4329,0.01129,10.0556
4330,0.0113,10.0556
4331,0.01131,10.1058
4332,0.01132,10.1058
4333,0.01133,10.1058
4334,0.01134,10.1058
4335,0.01135,10.1392
4336,0.01136,10.1225
4337,0.01137,10.1225
4338,0.01138,10.1559
4339,0.01139,10.1392
4340,0.0114,10.1726
4341,0.01141,10.1559
4342,0.01142,10.1893
4343,0.01143,10.1726
4344,0.01144,10.1893
4345,0.01145,10.1893
4346,0.01146,10.2227
4347,0.01147,10.206
4348,0.01148,10.2227
4349,0.01149,10.2227
4350,0.0115,10.2394
4351,0.01151,10.2394
4352,0.01152,10.2561
4353,0.01153,10.2561
4354,0.01154,10.2728
4355,0.01155,10.2728
4356,0.01156,10.2728
4357,0.01157,10.3062
4358,0.01158,10.3062
4359,0.01159,10.3062
4360,0.0116,10.3396
4361,0.01161,10.3396
4362,0.01162,10.3563
4363,0.01163,10.3563
4364,0.01164,10.373
4365,0.01165,10.373
4366,0.01166,10.3897
4367,0.01167,10.3897
4368,0.01168,10.4064
4369,0.01169,10.4064
4370,0.0117,10.4231
4371,0.01171,10.4231
4372,0.01172,10.4231
4373,0.01173,10.4565
4374,0.01174,10.4398
4375,0.01175,10.4732
4376,0.01176,10.4565
4377,0.01177,10.4732
4378,0.01178,10.4732
4379,0.01179,10.4899
4380,0.0118,10.4899
4381,0.01181,10.4899
4382,0.01182,10.5233
4383,0.01183,10.5066
4384,0.01184,10.5233
4385,0.01185,10.5233
4386,0.01186,10.54
4387,0.01187,10.54
4388,0.01188,10.5568
4389,0.01189,10.5568
4390,0.0119,10.5568
4391,0.01191,10.6069
4392,0.01192,10.6069
4393,0.01193,10.6069
4394,0.01194,10.6236
4395,0.01195,10.6236
4396,0.01196,10.6403
4397,0.01197,10.6403
4398,0.01198,10.6403
4399,0.01199,10.6737
4400,0.012,10.6737
4401,0.01201,10.6737
4402,0.01202,10.6904
4403,0.01203,10.6904
4404,0.01204,10.7071
4405,0.01205,10.7071
4406,0.01206,10.7071
4407,0.01207,10.7405
4408,0.01208,10.7405
4409,0.01209,10.7405
4410,0.0121,10.7405
4411,0.01211,10.7572
4412,0.01212,10.7572
4413,0.01213,10.7739
4414,0.01214,10.7739
4415,0.01215,10.7906
4416,0.01216,10.7906
4417,0.01217,10.8073
4418,0.01218,10.8073
4419,0.01219,10.8407
4420,0.0122,10.8407
4421,0.01221,10.8574
4422,0.01222,10.8574
4423,0.01223,10.8741
4424,0.01224,10.8741
4425,0.01225,10.8908
4426,0.01226,10.8908
4427,0.01227,10.9075
4428,0.01228,10.9075
4429,0.01229,10.9242
4430,0.0123,10.9242
4431,0.01231,10.9409
4432,0.01232,10.9409
4433,0.01233,10.9576
4434,0.01234,10.9576
4435,0.01235,10.9576
4436,0.01236,10.9743
4437,0.01237,10.9743
4438,0.01238,10.991
4439,0.01239,10.991
4440,0.0124,11.0078
4441,0.01241,11.0078
4442,0.01242,11.0412
4443,0.01243,11.0412
4444,0.01244,11.0412
4445,0.01245,11.0412
4446,0.01246,11.0913
4447,0.01247,11.0913
4448,0.01248,11.0913
4449,0.01249,11.108
4450,0.0125,11.108
4451,0.01251,11.108
4452,0.01252,11.1414
4453,0.01253,11.1414
4454,0.01254,11.1414
4455,0.01255,11.1581
4456,0.01256,11.1581
4457,0.01257,11.1748
4458,0.01258,11.1748
4459,0.01259,11.1748
4460,0.0126,11.1748
4461,0.01261,11.2082
4462,0.01262,11.1915
4463,0.01263,11.2249
4464,0.01264,11.2082
4465,0.01265,11.2416
4466,0.01266,11.2416
4467,0.01267,11.2416
4468,0.01268,11.2583
4469,0.01269,11.2583
4470,0.0127,11.275
4471,0.01271,11.275
4472,0.01272,11.275
4473,0.01273,11.275
4474,0.01274,11.3251
4475,0.01275,11.2917
4476,0.01276,11.3418
4477,0.01277,11.3418
4478,0.01278,11.3585
4479,0.01279,11.3585
4480,0.0128,11.3752
4481,0.01281,11.3752
4482,0.01282,11.3919
4483,0.01283,11.3919
4484,0.01284,11.4086
4485,0.01285,11.4086
4486,0.01286,11.4086
4487,0.01287,11.4086
4488,0.01288,11.442
4489,0.01289,11.442
4490,0.0129,11.442
4491,0.01291,11.4588
4492,0.01292,11.4588
4493,0.01293,11.4755
4494,0.01294,11.4755
4495,0.01295,11.4922
4496,0.01296,11.4922
4497,0.01297,11.5089
4498,0.01298,11.4922
4499,0.01299,11.5256
4500,0.013,11.5256
4501,0.01301,11.5423
4502,0.01302,11.5423
4503,0.01303,11.5757
4504,0.01304,11.5423
4505,0.01305,11.5924
4506,0.01306,11.5924
4507,0.01307,11.6091
4508,0.01308,11.6091
4509,0.01309,11.6258
4510,0.0131,11.6258
4511,0.01311,11.6425
4512,0.01312,11.6258
4513,0.01313,11.6592
4514,0.01314,11.6592
4515,0.01315,11.6592
4516,0.01316,11.6759
4517,0.01317,11.6759
4518,0.01318,11.6926
4519,0.01319,11.6926
4520,0.0132,11.7093
4521,0.01321,11.7093
4522,0.01322,11.726
4523,0.01323,11.7093
4524,0.01324,11.7427
4525,0.01325,11.7427
4526,0.01326,11.7594
4527,0.01327,11.7594
4528,0.01328,11.7761
4529,0.01329,11.7761
4530,0.0133,11.7928
4531,0.01331,11.7928
4532,0.01332,11.8262
4533,0.01333,11.8262
4534,0.01334,11.8262
4535,0.01335,11.8429
4536,0.01336,11.8429
4537,0.01337,11.8429
4538,0.01338,11.8763
4539,0.01339,11.8763
4540,0.0134,11.8763
4541,0.01341,11.893
4542,0.01342,11.893
4543,0.01343,11.893
4544,0.01344,11.9265
4545,0.01345,11.9265
4546,0.01346,11.9265
4547,0.01347,11.9432
4548,0.01348,11.9265
4549,0.01349,11.9599
4550,0.0135,11.9432
4551,0.01351,11.9766
4552,0.01352,11.9766
4553,0.01353,11.9766
4554,0.01354,11.9933
4555,0.01355,11.9933
4556,0.01356,12.01
4557,0.01357,12.01
4558,0.01358,12.0267
4559,0.01359,12.0267
4560,0.0136,12.0267
4561,0.01361,12.0768
4562,0.01362,12.0768
4563,0.01363,12.0768
4564,0.01364,12.1102
4565,0.01365,12.1102
4566,0.01366,12.1102
4567,0.01367,12.1102
4568,0.01368,12.1269
4569,0.01369,12.1269
4570,0.0137,12.1436
4571,0.01371,12.1436
4572,0.01372,12.1603
4573,0.01373,12.1603
4574,0.01374,12.177
4575,0.01375,12.177
4576,0.01376,12.1937
4577,0.01377,12.177
4578,0.01378,12.2104
4579,0.01379,12.1937
4580,0.0138,12.2271
4581,0.01381,12.2104
4582,0.01382,12.2438
4583,0.01383,12.2271
4584,0.01384,12.2605
4585,0.01385,12.2605
4586,0.01386,12.2605
4587,0.01387,12.2605
4588,0.01388,12.3106
4589,0.01389,12.2772
4590,0.0139,12.3273
4591,0.01391,12.3273
4592,0.01392,12.3273
4593,0.01393,12.3441
4594,0.01394,12.177
4595,0.01395,12.1436
4596,0.01396,0.935408
4597,0.01397,-0.567927
4598,0.01398,-0.701556
4599,0.01399,-0.668149
4600,0.014,-0.601334
4601,0.01401,-0.534519
4602,0.01402,-0.517815
4603,0.01403,-0.434297
4604,0.01404,-0.417593
4605,0.01405,-0.400889
4606,0.01406,-0.367482
4607,0.01407,-0.350778
4608,0.01408,-0.334074
4609,0.01409,-0.334074
4610,0.0141,-0.233852
4611,0.01411,-0.0501112
4612,0.01412,-0.0668149
4613,0.01413,-0.0668149
4614,0.01414,-0.0668149
4615,0.01415,-0.0668149
4616,0.01416,-0.0668149
4617,0.01417,-0.0668149
4618,0.01418,-0.0668149
4619,0.01419,-0.0668149
4620,0.0142,-0.0668149
4621,0.01421,-0.0668149
4622,0.01422,-0.0668149
4623,0.01423,-0.0668149
4624,0.01424,-0.0668149
4625,0.01425,-0.0668149
4626,0.01426,-0.0668149
4627,0.01427,-0.0668149
4628,0.01428,-0.0668149
4629,0.01429,-0.0668149
4630,0.0143,-0.0668149
4631,0.01431,-0.0668149
4632,0.01432,-0.0668149
4633,0.01433,-0.0668149
4634,0.01434,-0.0668149
4635,0.01435,-0.0668149
4636,0.01436,-0.0668149
4637,0.01437,-0.0668149
4638,0.01438,-0.0668149
4639,0.01439,-0.0668149
4640,0.0144,-0.0668149
4641,0.01441,-0.0668149
4642,0.01442,-0.0668149
4643,0.01443,-0.0668149
4644,0.01444,-0.0668149
4645,0.01445,-0.0668149
4646,0.01446,-0.0668149
4647,0.01447,-0.0668149
4648,0.01448,-0.0668149
4649,0.01449,-0.0668149
4650,0.0145,-0.0668149
4651,0.01451,-0.0668149
4652,0.01452,-0.0501112
4653,0.01453,-0.0835186
4654,0.01454,-0.0501112
4655,0.01455,-0.0668149
4656,0.01456,-0.0668149
4657,0.01457,-0.0668149
4658,0.01458,-0.0668149
4659,0.01459,-0.0668149
4660,0.0146,-0.0668149
4661,0.01461,-0.0668149
4662,0.01462,-0.0668149
4663,0.01463,-0.0668149
4664,0.01464,-0.0668149
4665,0.01465,-0.0668149
4666,0.01466,-0.0668149
4667,0.01467,-0.0668149
4668,0.01468,-0.0668149
4669,0.01469,-0.0668149
4670,0.0147,-0.0668149
4671,0.01471,-0.0668149
4672,0.01472,-0.0668149
4673,0.01473,-0.0668149
4674,0.01474,-0.0668149
4675,0.01475,-0.0668149
4676,0.01476,-0.0668149
4677,0.01477,-0.0668149
4678,0.01478,-0.0668149
4679,0.01479,-0.0668149
4680,0.0148,-0.0668149
4681,0.01481,-0.0668149
4682,0.01482,-0.0668149
4683,0.01483,-0.0668149
4684,0.01484,-0.0668149
4685,0.01485,-0.0668149
4686,0.01486,-0.0668149
4687,0.01487,-0.0668149
4688,0.01488,-0.0668149
4689,0.01489,-0.0668149
4690,0.0149,-0.0668149
4691,0.01491,-0.0668149
4692,0.01492,-0.0668149
4693,0.01493,-0.0668149
4694,0.01494,-0.0668149
4695,0.01495,-0.0668149
4696,0.01496,-0.0668149
4697,0.01497,-0.0668149
4698,0.01498,-0.0668149
4699,0.01499,-0.0668149
4700,0.015,-0.0668149
4701,0.01501,-0.0668149
4702,0.01502,-0.0668149
4703,0.01503,-0.0668149
4704,0.01504,-0.0668149
4705,0.01505,-0.0668149
4706,0.01506,-0.0668149
4707,0.01507,-0.0668149
4708,0.01508,-0.0668149
4709,0.01509,-0.0668149
4710,0.0151,-0.0668149
4711,0.01511,-0.0668149
4712,0.01512,-0.0668149
4713,0.01513,-0.0668149
4714,0.01514,-0.0668149
4715,0.01515,-0.0668149
4716,0.01516,-0.0668149
4717,0.01517,-0.0668149
4718,0.01518,-0.0668149
4719,0.01519,-0.0668149
4720,0.0152,-0.0668149
4721,0.01521,-0.0668149
4722,0.01522,-0.0501112
4723,0.01523,-0.0501112
4724,0.01524,-0.0501112
4725,0.01525,-0.0334074
4726,0.01526,-0.0334074
4727,0.01527,-0.0334074
4728,0.01528,0.0167037
4729,0.01529,0.0167037
4730,0.0153,0.0334074
4731,0.01531,0.0334074
4732,0.01532,0.0668149
4733,0.01533,0.0501112
4734,0.01534,0.0835186
4735,0.01535,0.0835186
4736,0.01536,0.0835186
4737,0.01537,0.100222
4738,0.01538,0.100222
4739,0.01539,0.100222
4740,0.0154,0.13363
4741,0.01541,0.116926
4742,0.01542,0.150333
4743,0.01543,0.150333
4744,0.01544,0.167037
4745,0.01545,0.167037
4746,0.01546,0.183741
4747,0.01547,0.183741
4748,0.01548,0.183741
4749,0.01549,0.200445
4750,0.0155,0.200445
4751,0.01551,0.200445
4752,0.01552,0.200445
4753,0.01553,0.250556
4754,0.01554,0.250556
4755,0.01555,0.26726
4756,0.01556,0.26726
4757,0.01557,0.283963
4758,0.01558,0.283963
4759,0.01559,0.300667
4760,0.0156,0.300667
4761,0.01561,0.300667
4762,0.01562,0.334074
4763,0.01563,0.334074
4764,0.01564,0.334074
4765,0.01565,0.367482
4766,0.01566,0.384186
4767,0.01567,0.367482
4768,0.01568,0.400889
4769,0.01569,0.384186
4770,0.0157,0.417593
4771,0.01571,0.417593
4772,0.01572,0.417593
4773,0.01573,0.434297
4774,0.01574,0.417593
4775,0.01575,0.451
4776,0.01576,0.434297
4777,0.01577,0.467704
4778,0.01578,0.451
4779,0.01579,0.501112
4780,0.0158,0.467704
4781,0.01581,0.517815
4782,0.01582,0.501112
4783,0.01583,0.534519
4784,0.01584,0.551223
4785,0.01585,0.551223
4786,0.01586,0.551223
4787,0.01587,0.551223
4788,0.01588,0.58463
4789,0.01589,0.58463
4790,0.0159,0.58463
4791,0.01591,0.601334
4792,0.01592,0.601334
4793,0.01593,0.618038
4794,0.01594,0.618038
4795,0.01595,0.618038
4796,0.01596,0.651445
4797,0.01597,0.634741
4798,0.01598,0.668149
4799,0.01599,0.651445
4800,0.016,0.684853
4801,0.01601,0.668149
4802,0.01602,0.701556
4803,0.01603,0.684853
4804,0.01604,0.71826
4805,0.01605,0.71826
4806,0.01606,0.751667
4807,0.01607,0.71826
4808,0.01608,0.768371
4809,0.01609,0.768371
4810,0.0161,0.785075
4811,0.01611,0.785075
4812,0.01612,0.801779
4813,0.01613,0.801779
4814,0.01614,0.818482
4815,0.01615,0.818482
4816,0.01616,0.835186
4817,0.01617,0.835186
4818,0.01618,0.835186
4819,0.01619,0.868594
4820,0.0162,0.85189
4821,0.01621,0.885297
4822,0.01622,0.868594
4823,0.01623,0.902001
4824,0.01624,0.885297
4825,0.01625,0.918705
4826,0.01626,0.902001
4827,0.01627,0.935408
4828,0.01628,0.918705
4829,0.01629,0.952112
4830,0.0163,0.935408
4831,0.01631,0.98552
4832,0.01632,0.952112
4833,0.01633,1.00222
4834,0.01634,0.98552
4835,0.01635,1.01893
4836,0.01636,1.01893
4837,0.01637,1.01893
4838,0.01638,1.05233
4839,0.01639,1.05233
4840,0.0164,1.06904
4841,0.01641,1.06904
4842,0.01642,1.06904
4843,0.01643,1.08574
4844,0.01644,1.08574
4845,0.01645,1.10245
4846,0.01646,1.10245
4847,0.01647,1.11915
4848,0.01648,1.11915
4849,0.01649,1.11915
4850,0.0165,1.15256
4851,0.01651,1.13585
4852,0.01652,1.16926
4853,0.01653,1.15256
4854,0.01654,1.18596
4855,0.01655,1.16926
4856,0.01656,1.20267
4857,0.01657,1.18596
4858,0.01658,1.23608
4859,0.01659,1.20267
4860,0.0166,1.25278
4861,0.01661,1.23608
4862,0.01662,1.26948
4863,0.01663,1.26948
4864,0.01664,1.28619
4865,0.01665,1.26948
4866,0.01666,1.30289
4867,0.01667,1.30289
4868,0.01668,1.31959
4869,0.01669,1.30289
4870,0.0167,1.3363
4871,0.01671,1.3363
4872,0.01672,1.3363
4873,0.01673,1.36971
4874,0.01674,1.36971
4875,0.01675,1.38641
4876,0.01676,1.38641
4877,0.01677,1.40311
4878,0.01678,1.40311
4879,0.01679,1.40311
4880,0.0168,1.41982
4881,0.01681,1.41982
4882,0.01682,1.43652
4883,0.01683,1.43652
4884,0.01684,1.45322
4885,0.01685,1.45322
4886,0.01686,1.48663
4887,0.01687,1.48663
4888,0.01688,1.50333
4889,0.01689,1.50333
4890,0.0169,1.52004
4891,0.01691,1.52004
4892,0.01692,1.52004
4893,0.01693,1.55345
4894,0.01694,1.55345
4895,0.01695,1.57015
4896,0.01696,1.57015
4897,0.01697,1.58685
4898,0.01698,1.58685
4899,0.01699,1.60356
4900,0.017,1.60356
4901,0.01701,1.62026
4902,0.01702,1.62026
4903,0.01703,1.63696
4904,0.01704,1.63696
4905,0.01705,1.65367
4906,0.01706,1.65367
4907,0.01707,1.67037
4908,0.01708,1.67037
4909,0.01709,1.68708
4910,0.0171,1.68708
4911,0.01711,1.70378
4912,0.01712,1.70378
4913,0.01713,1.73719
4914,0.01714,1.73719
4915,0.01715,1.75389
4916,0.01716,1.75389
4917,0.01717,1.77059
4918,0.01718,1.77059
4919,0.01719,1.7873
4920,0.0172,1.7873
4921,0.01721,1.804
4922,0.01722,1.804
4923,0.01723,1.82071
4924,0.01724,1.83741
4925,0.01725,1.83741
4926,0.01726,1.85411
4927,0.01727,1.85411
4928,0.01728,1.87082
4929,0.01729,1.87082
4930,0.0173,1.88752
4931,0.01731,1.88752
4932,0.01732,1.90422
4933,0.01733,1.92093
4934,0.01734,1.92093
4935,0.01735,1.92093
4936,0.01736,1.93763
4937,0.01737,1.93763
4938,0.01738,1.97104
4939,0.01739,1.97104
4940,0.0174,1.98774
4941,0.01741,1.98774
4942,0.01742,2.00445
4943,0.01743,2.00445
4944,0.01744,2.00445
4945,0.01745,2.03785
4946,0.01746,2.03785
4947,0.01747,2.03785
4948,0.01748,2.05456
4949,0.01749,2.05456
4950,0.0175,2.07126
4951,0.01751,2.10467
4952,0.01752,2.10467
4953,0.01753,2.10467
4954,0.01754,2.12137
4955,0.01755,2.12137
4956,0.01756,2.12137
4957,0.01757,2.13808
4958,0.01758,2.13808
4959,0.01759,2.13808
4960,0.0176,2.15478
4961,0.01761,2.15478
4962,0.01762,2.17148
4963,0.01763,2.17148
4964,0.01764,2.18819
4965,0.01765,2.18819
4966,0.01766,2.2216
4967,0.01767,2.2216
4968,0.01768,2.255
4969,0.01769,2.255
4970,0.0177,2.255
4971,0.01771,2.27171
4972,0.01772,2.27171
4973,0.01773,2.28841
4974,0.01774,2.28841
4975,0.01775,2.30511
4976,0.01776,2.30511
4977,0.01777,2.30511
4978,0.01778,2.33852
4979,0.01779,2.33852
4980,0.0178,2.33852
4981,0.01781,2.35522
4982,0.01782,2.35522
4983,0.01783,2.37193
4984,0.01784,2.37193
4985,0.01785,2.38863
4986,0.01786,2.38863
4987,0.01787,2.42204
4988,0.01788,2.40534
4989,0.01789,2.43874
4990,0.0179,2.42204
4991,0.01791,2.47215
4992,0.01792,2.43874
4993,0.01793,2.48885
4994,0.01794,2.47215
4995,0.01795,2.48885
4996,0.01796,2.48885
4997,0.01797,2.50556
4998,0.01798,2.50556
4999,0.01799,2.52226
5000,0.018,2.52226
5001,0.01801,2.55567
5002,0.01802,2.53897
5003,0.01803,2.55567
5004,0.01804,2.55567
5005,0.01805,2.57237
5006,0.01806,2.57237
5007,0.01807,2.58908
5008,0.01808,2.58908
5009,0.01809,2.60578
5010,0.0181,2.60578
5011,0.01811,2.62248
5012,0.01812,2.62248
5013,0.01813,2.63919
5014,0.01814,2.63919
5015,0.01815,2.65589
5016,0.01816,2.65589
5017,0.01817,2.6893
5018,0.01818,2.6726
5019,0.01819,2.6893
5020,0.0182,2.6893
5021,0.01821,2.72271
5022,0.01822,2.72271
5023,0.01823,2.72271
5024,0.01824,2.75611
5025,0.01825,2.75611
5026,0.01826,2.75611
5027,0.01827,2.77282
5028,0.01828,2.77282
5029,0.01829,2.78952
5030,0.0183,2.78952
5031,0.01831,2.82293
5032,0.01832,2.82293
5033,0.01833,2.82293
5034,0.01834,2.82293
5035,0.01835,2.85634
5036,0.01836,2.83963
5037,0.01837,2.87304
5038,0.01838,2.85634
5039,0.01839,2.88974
5040,0.0184,2.87304
5041,0.01841,2.90645
5042,0.01842,2.88974
5043,0.01843,2.92315
5044,0.01844,2.90645
5045,0.01845,2.95656
5046,0.01846,2.92315
5047,0.01847,2.97326
5048,0.01848,2.95656
5049,0.01849,2.98997
5050,0.0185,2.97326
5051,0.01851,2.98997
5052,0.01852,2.98997
5053,0.01853,3.00667
5054,0.01854,3.00667
5055,0.01855,3.02337
5056,0.01856,3.02337
5057,0.01857,3.05678
5058,0.01858,3.04008
5059,0.01859,3.05678
5060,0.0186,3.05678
5061,0.01861,3.07348
5062,0.01862,3.07348
5063,0.01863,3.10689
5064,0.01864,3.10689
5065,0.01865,3.10689
5066,0.01866,3.1403
5067,0.01867,3.1236
5068,0.01868,3.157
5069,0.01869,3.1403
5070,0.0187,3.157
5071,0.01871,3.157
5072,0.01872,3.157
5073,0.01873,3.20711
5074,0.01874,3.17371
5075,0.01875,3.22382
5076,0.01876,3.20711
5077,0.01877,3.24052
5078,0.01878,3.22382
5079,0.01879,3.25723
5080,0.0188,3.24052
5081,0.01881,3.25723
5082,0.01882,3.25723
5083,0.01883,3.29063
5084,0.01884,3.27393
5085,0.01885,3.30734
5086,0.01886,3.29063
5087,0.01887,3.32404
5088,0.01888,3.30734
5089,0.01889,3.34074
5090,0.0189,3.32404
5091,0.01891,3.35745
5092,0.01892,3.34074
5093,0.01893,3.37415
5094,0.01894,3.37415
5095,0.01895,3.37415
5096,0.01896,3.39086
5097,0.01897,3.39086
5098,0.01898,3.40756
5099,0.01899,3.40756
5100,0.019,3.42426
5101,0.01901,3.42426
5102,0.01902,3.45767
5103,0.01903,3.45767
5104,0.01904,3.45767
5105,0.01905,3.49108
5106,0.01906,3.47437
5107,0.01907,3.50778
5108,0.01908,3.49108
5109,0.01909,3.52449
5110,0.0191,3.50778
5111,0.01911,3.54119
5112,0.01912,3.54119
5113,0.01913,3.54119
5114,0.01914,3.54119
5115,0.01915,3.5746
5116,0.01916,3.5746
5117,0.01917,3.5746
5118,0.01918,3.5746
5119,0.01919,3.608
5120,0.0192,3.5913
5121,0.01921,3.62471
5122,0.01922,3.608
5123,0.01923,3.64141
5124,0.01924,3.62471
5125,0.01925,3.65811
5126,0.01926,3.65811
5127,0.01927,3.65811
5128,0.01928,3.65811
5129,0.01929,3.70823
5130,0.0193,3.67482
5131,0.01931,3.72493
5132,0.01932,3.70823
5133,0.01933,3.74163
5134,0.01934,3.72493
5135,0.01935,3.75834
5136,0.01936,3.74163
5137,0.01937,3.77504
5138,0.01938,3.75834
5139,0.01939,3.79174
5140,0.0194,3.77504
5141,0.01941,3.80845
5142,0.01942,3.80845
5143,0.01943,3.80845
5144,0.01944,3.80845
5145,0.01945,3.84186
5146,0.01946,3.84186
5147,0.01947,3.84186
5148,0.01948,3.84186
5149,0.01949,3.87526
5150,0.0195,3.85856
5151,0.01951,3.89197
5152,0.01952,3.87526
5153,0.01953,3.90867
5154,0.01954,3.89197
5155,0.01955,3.94208
5156,0.01956,3.90867
5157,0.01957,3.95878
5158,0.01958,3.94208
5159,0.01959,3.97549
5160,0.0196,3.97549
5161,0.01961,3.97549
5162,0.01962,3.97549
5163,0.01963,3.97549
5164,0.01964,4.00889
5165,0.01965,4.00889
5166,0.01966,4.0256
5167,0.01967,4.0256
5168,0.01968,4.0256
5169,0.01969,4.059
5170,0.0197,4.059
5171,0.01971,4.059
5172,0.01972,4.09241
5173,0.01973,4.07571
5174,0.01974,4.10912
5175,0.01975,4.09241
5176,0.01976,4.12582
5177,0.01977,4.12582
5178,0.01978,4.12582
5179,0.01979,4.12582
5180,0.0198,4.14252
5181,0.01981,4.14252
5182,0.01982,4.15923
5183,0.01983,4.15923
5184,0.01984,4.19263
5185,0.01985,4.19263
5186,0.01986,4.20934
5187,0.01987,4.20934
5188,0.01988,4.22604
5189,0.01989,4.22604
5190,0.0199,4.24275
5191,0.01991,4.24275
5192,0.01992,4.24275
5193,0.01993,4.27615
5194,0.01994,4.27615
5195,0.01995,4.29286
5196,0.01996,4.29286
5197,0.01997,4.30956
5198,0.01998,4.29286
5199,0.01999,4.32626
5200,0.02,4.30956
5201,0.02001,4.34297
5202,0.02002,4.32626
5203,0.02003,4.35967
5204,0.02004,4.35967
5205,0.02005,4.35967
5206,0.02006,4.35967
5207,0.02007,4.39308
5208,0.02008,4.39308
5209,0.02009,4.39308
5210,0.0201,4.39308
5211,0.02011,4.44319
5212,0.02012,4.40978
5213,0.02013,4.45989
5214,0.02014,4.45989
5215,0.02015,4.45989
5216,0.02016,4.4766
5217,0.02017,4.45989
5218,0.02018,4.4933
5219,0.02019,4.4766
5220,0.0202,4.51
5221,0.02021,4.4933
5222,0.02022,4.52671
5223,0.02023,4.52671
5224,0.02024,4.54341
5225,0.02025,4.52671
5226,0.02026,4.56012
5227,0.02027,4.54341
5228,0.02028,4.57682
5229,0.02029,4.56012
5230,0.0203,4.59352
5231,0.02031,4.57682
5232,0.02032,4.61023
5233,0.02033,4.59352
5234,0.02034,4.62693
5235,0.02035,4.61023
5236,0.02036,4.64363
5237,0.02037,4.62693
5238,0.02038,4.67704
5239,0.02039,4.67704
5240,0.0204,4.69375
5241,0.02041,4.69375
5242,0.02042,4.69375
5243,0.02043,4.69375
5244,0.02044,4.72715
5245,0.02045,4.71045
5246,0.02046,4.74386
5247,0.02047,4.72715
5248,0.02048,4.76056
5249,0.02049,4.74386
5250,0.0205,4.77726
5251,0.02051,4.76056
5252,0.02052,4.79397
5253,0.02053,4.77726
5254,0.02054,4.81067
5255,0.02055,4.79397
5256,0.02056,4.82738
5257,0.02057,4.81067
5258,0.02058,4.84408
5259,0.02059,4.82738
5260,0.0206,4.86078
5261,0.02061,4.84408
5262,0.02062,4.87749
5263,0.02063,4.86078
5264,0.02064,4.89419
5265,0.02065,4.87749
5266,0.02066,4.9276
5267,0.02067,4.9276
5268,0.02068,4.9443
5269,0.02069,4.9276
5270,0.0207,4.96101
5271,0.02071,4.9443
5272,0.02072,4.97771
5273,0.02073,4.97771
5274,0.02074,4.97771
5275,0.02075,4.99441
5276,0.02076,4.99441
5277,0.02077,5.01112
5278,0.02078,4.99441
5279,0.02079,5.02782
5280,0.0208,5.02782
5281,0.02081,5.04452
5282,0.02082,5.04452
5283,0.02083,5.06123
5284,0.02084,5.06123
5285,0.02085,5.07793
5286,0.02086,5.07793
5287,0.02087,5.09464
5288,0.02088,5.11134
5289,0.02089,5.11134
5290,0.0209,5.12804
5291,0.02091,5.12804
5292,0.02092,5.14475
5293,0.02093,5.14475
5294,0.02094,5.17815
5295,0.02095,5.17815
5296,0.02096,5.17815
5297,0.02097,5.19486
5298,0.02098,5.19486
5299,0.02099,5.21156
5300,0.021,5.21156
5301,0.02101,5.22826
5302,0.02102,5.22826
5303,0.02103,5.24497
5304,0.02104,5.24497
5305,0.02105,5.26167
5306,0.02106,5.26167
5307,0.02107,5.27838
5308,0.02108,5.27838
5309,0.02109,5.29508
5310,0.0211,5.29508
5311,0.02111,5.31178
5312,0.02112,5.31178
5313,0.02113,5.32849
5314,0.02114,5.32849
5315,0.02115,5.34519
5316,0.02116,5.34519
5317,0.02117,5.36189
5318,0.02118,5.36189
5319,0.02119,5.3786
5320,0.0212,5.3786
5321,0.02121,5.3953
5322,0.02122,5.3953
5323,0.02123,5.42871
5324,0.02124,5.42871
5325,0.02125,5.44541
5326,0.02126,5.44541
5327,0.02127,5.46212
5328,0.02128,5.46212
5329,0.02129,5.46212
5330,0.0213,5.47882
5331,0.02131,5.47882
5332,0.02132,5.49552
5333,0.02133,5.49552
5334,0.02134,5.51223
5335,0.02135,5.52893
5336,0.02136,5.52893
5337,0.02137,5.52893
5338,0.02138,5.54564
5339,0.02139,5.54564
5340,0.0214,5.56234
5341,0.02141,5.57904
5342,0.02142,5.57904
5343,0.02143,5.57904
5344,0.02144,5.59575
5345,0.02145,5.61245
5346,0.02146,5.61245
5347,0.02147,5.62915
5348,0.02148,5.62915
5349,0.02149,5.66256
5350,0.0215,5.66256
5351,0.02151,5.67927
5352,0.02152,5.67927
5353,0.02153,5.69597
5354,0.02154,5.69597
5355,0.02155,5.71267
5356,0.02156,5.71267
5357,0.02157,5.72938
5358,0.02158,5.72938
5359,0.02159,5.74608
5360,0.0216,5.74608
5361,0.02161,5.74608
5362,0.02162,5.76278
5363,0.02163,5.76278
5364,0.02164,5.77949
5365,0.02165,5.77949
5366,0.02166,5.79619
5367,0.02167,5.79619
5368,0.02168,5.8129
5369,0.02169,5.8129
5370,0.0217,5.8296
5371,0.02171,5.8296
5372,0.02172,5.8463
5373,0.02173,5.8463
5374,0.02174,5.86301
5375,0.02175,5.86301
5376,0.02176,5.87971
5377,0.02177,5.87971
5378,0.02178,5.91312
5379,0.02179,5.91312
5380,0.0218,5.92982
5381,0.02181,5.92982
5382,0.02182,5.94652
5383,0.02183,5.94652
5384,0.02184,5.96323
5385,0.02185,5.96323
5386,0.02186,5.96323
5387,0.02187,5.97993
5388,0.02188,5.97993
5389,0.02189,5.99664
5390,0.0219,5.99664
5391,0.02191,6.03004
5392,0.02192,6.01334
5393,0.02193,6.04675
5394,0.02194,6.03004
5395,0.02195,6.06345
5396,0.02196,6.06345
5397,0.02197,6.06345
5398,0.02198,6.09686
5399,0.02199,6.09686
5400,0.022,6.09686
5401,0.02201,6.09686
5402,0.02202,6.13027
5403,0.02203,6.11356
5404,0.02204,6.13027
5405,0.02205,6.13027
5406,0.02206,6.13027
5407,0.02207,6.18038
5408,0.02208,6.16367
5409,0.02209,6.19708
5410,0.0221,6.18038
5411,0.02211,6.21378
5412,0.02212,6.19708
5413,0.02213,6.23049
5414,0.02214,6.21378
5415,0.02215,6.23049
5416,0.02216,6.23049
5417,0.02217,6.24719
5418,0.02218,6.24719
5419,0.02219,6.2639
5420,0.0222,6.2639
5421,0.02221,6.2973
5422,0.02222,6.2806
5423,0.02223,6.31401
5424,0.02224,6.2973
5425,0.02225,6.31401
5426,0.02226,6.31401
5427,0.02227,6.33071
5428,0.02228,6.33071
5429,0.02229,6.36412
5430,0.0223,6.34741
5431,0.02231,6.38082
5432,0.02232,6.36412
5433,0.02233,6.41423
5434,0.02234,6.38082
5435,0.02235,6.43093
5436,0.02236,6.41423
5437,0.02237,6.44764
5438,0.02238,6.43093
5439,0.02239,6.46434
5440,0.0224,6.44764
5441,0.02241,6.48104
5442,0.02242,6.46434
5443,0.02243,6.48104
5444,0.02244,6.48104
5445,0.02245,6.48104
5446,0.02246,6.51445
5447,0.02247,6.49775
5448,0.02248,6.51445
5449,0.02249,6.51445
5450,0.0225,6.53116
5451,0.02251,6.53116
5452,0.02252,6.54786
5453,0.02253,6.54786
5454,0.02254,6.56456
5455,0.02255,6.56456
5456,0.02256,6.58127
5457,0.02257,6.58127
5458,0.02258,6.59797
5459,0.02259,6.59797
5460,0.0226,6.64808
5461,0.02261,6.61467
5462,0.02262,6.66478
5463,0.02263,6.64808
5464,0.02264,6.68149
5465,0.02265,6.66478
5466,0.02266,6.68149
5467,0.02267,6.68149
5468,0.02268,6.69819
5469,0.02269,6.69819
5470,0.0227,6.7149
5471,0.02271,6.7149
5472,0.02272,6.7316
5473,0.02273,6.7316
5474,0.02274,6.7483
5475,0.02275,6.7483
5476,0.02276,6.76501
5477,0.02277,6.76501
5478,0.02278,6.78171
5479,0.02279,6.78171
5480,0.0228,6.78171
5481,0.02281,6.81512
5482,0.02282,6.79841
5483,0.02283,6.83182
5484,0.02284,6.81512
5485,0.02285,6.83182
5486,0.02286,6.83182
5487,0.02287,6.86523
5488,0.02288,6.84853
5489,0.02289,6.89864
5490,0.0229,6.86523
5491,0.02291,6.91534
5492,0.02292,6.89864
5493,0.02293,6.93204
5494,0.02294,6.93204
5495,0.02295,6.93204
5496,0.02296,6.93204
5497,0.02297,6.96545
5498,0.02298,6.94875
5499,0.02299,6.96545
5500,0.023,6.96545
5501,0.02301,6.96545
5502,0.02302,6.99886
5503,0.02303,6.98216
5504,0.02304,7.01556
5505,0.02305,7.01556
5506,0.02306,7.01556
5507,0.02307,7.03227
5508,0.02308,7.03227
5509,0.02309,7.06567
5510,0.0231,7.04897
5511,0.02311,7.04897
5512,0.02312,7.08238
5513,0.02313,7.08238
5514,0.02314,7.08238
5515,0.02315,7.11579
5516,0.02316,7.11579
5517,0.02317,7.11579
5518,0.02318,7.11579
5519,0.02319,7.1659
5520,0.0232,7.14919
5521,0.02321,7.1826
5522,0.02322,7.1826
5523,0.02323,7.1826
5524,0.02324,7.1826
5525,0.02325,7.1993
5526,0.02326,7.1993
5527,0.02327,7.21601
5528,0.02328,7.21601
5529,0.02329,7.21601
5530,0.0233,7.24941
5531,0.02331,7.23271
5532,0.02332,7.26612
5533,0.02333,7.24941
5534,0.02334,7.28282
5535,0.02335,7.28282
5536,0.02336,7.28282
5537,0.02337,7.28282
5538,0.02338,7.29953
5539,0.02339,7.29953
5540,0.0234,7.29953
5541,0.02341,7.33293
5542,0.02342,7.33293
5543,0.02343,7.33293
5544,0.02344,7.36634
5545,0.02345,7.34964
5546,0.02346,7.39975
5547,0.02347,7.36634
5548,0.02348,7.41645
5549,0.02349,7.39975
5550,0.0235,7.43316
5551,0.02351,7.41645
5552,0.02352,7.44986
5553,0.02353,7.44986
5554,0.02354,7.44986
5555,0.02355,7.44986
5556,0.02356,7.44986
5557,0.02357,7.48327
5558,0.02358,7.46656
5559,0.02359,7.49997
5560,0.0236,7.48327
5561,0.02361,7.51667
5562,0.02362,7.51667
5563,0.02363,7.51667
5564,0.02364,7.51667
5565,0.02365,7.55008
5566,0.02366,7.53338
5567,0.02367,7.56679
5568,0.02368,7.55008
5569,0.02369,7.58349
5570,0.0237,7.56679
5571,0.02371,7.60019
5572,0.02372,7.60019
5573,0.02373,7.60019
5574,0.02374,7.6336
5575,0.02375,7.6336
5576,0.02376,7.6503
5577,0.02377,7.6503
5578,0.02378,7.66701
5579,0.02379,7.66701
5580,0.0238,7.68371
5581,0.02381,7.68371
5582,0.02382,7.68371
5583,0.02383,7.68371
5584,0.02384,7.71712
5585,0.02385,7.70042
5586,0.02386,7.73382
5587,0.02387,7.71712
5588,0.02388,7.75053
5589,0.02389,7.75053
5590,0.0239,7.76723
5591,0.02391,7.75053
5592,0.02392,7.78393
5593,0.02393,7.78393
5594,0.02394,7.80064
5595,0.02395,7.78393
5596,0.02396,7.81734
5597,0.02397,7.81734
5598,0.02398,7.83405
5599,0.02399,7.83405
5600,0.024,7.83405
5601,0.02401,7.85075
5602,0.02402,7.85075
5603,0.02403,7.88416
5604,0.02404,7.88416
5605,0.02405,7.88416
5606,0.02406,7.91756
5607,0.02407,7.90086
5608,0.02408,7.93427
5609,0.02409,7.93427
5610,0.0241,7.93427
5611,0.02411,7.95097
5612,0.02412,7.93427
5613,0.02413,7.96768
5614,0.02414,7.95097
5615,0.02415,7.98438
5616,0.02416,7.96768
5617,0.02417,8.00108
5618,0.02418,8.00108
5619,0.02419,8.00108
5620,0.0242,8.01779
5621,0.02421,8.01779
5622,0.02422,8.03449
5623,0.02423,8.05119
5624,0.02424,8.0679
5625,0.02425,8.0679
5626,0.02426,8.0846
5627,0.02427,8.0679
5628,0.02428,8.10131
5629,0.02429,8.10131
5630,0.0243,8.10131
5631,0.02431,8.13471
5632,0.02432,8.13471
5633,0.02433,8.13471
5634,0.02434,8.15142
5635,0.02435,8.15142
5636,0.02436,8.16812
5637,0.02437,8.16812
5638,0.02438,8.18482
5639,0.02439,8.18482
5640,0.0244,8.20153
5641,0.02441,8.20153
5642,0.02442,8.21823
5643,0.02443,8.21823
5644,0.02444,8.23493
5645,0.02445,8.23493
5646,0.02446,8.23493
5647,0.02447,8.26834
5648,0.02448,8.25164
5649,0.02449,8.28505
5650,0.0245,8.26834
5651,0.02451,8.30175
5652,0.02452,8.30175
5653,0.02453,8.30175
5654,0.02454,8.31845
5655,0.02455,8.31845
5656,0.02456,8.33516
5657,0.02457,8.33516
5658,0.02458,8.36856
5659,0.02459,8.33516
5660,0.0246,8.38527
5661,0.02461,8.38527
5662,0.02462,8.40197
5663,0.02463,8.38527
5664,0.02464,8.41868
5665,0.02465,8.40197
5666,0.02466,8.43538
5667,0.02467,8.41868
5668,0.02468,8.45208
5669,0.02469,8.43538
5670,0.0247,8.46879
5671,0.02471,8.46879
5672,0.02472,8.46879
5673,0.02473,8.48549
5674,0.02474,8.46879
5675,0.02475,8.50219
5676,0.02476,8.48549
5677,0.02477,8.5189
5678,0.02478,8.5189
5679,0.02479,8.5356
5680,0.0248,8.5356
5681,0.02481,8.55231
5682,0.02482,8.5356
5683,0.02483,8.56901
5684,0.02484,8.55231
5685,0.02485,8.58571
5686,0.02486,8.56901
5687,0.02487,8.61912
5688,0.02488,8.58571
5689,0.02489,8.63582
5690,0.0249,8.63582
5691,0.02491,8.63582
5692,0.02492,8.65253
5693,0.02493,8.65253
5694,0.02494,8.65253
5695,0.02495,8.68594
5696,0.02496,8.68594
5697,0.02497,8.68594
5698,0.02498,8.70264
5699,0.02499,8.70264
5700,0.025,8.71934
5701,0.02501,8.71934
5702,0.02502,8.73605
5703,0.02503,8.73605
5704,0.02504,8.75275
5705,0.02505,8.75275
5706,0.02506,8.76945
5707,0.02507,8.76945
5708,0.02508,8.78616
5709,0.02509,8.78616
5710,0.0251,8.80286
5711,0.02511,8.80286
5712,0.02512,8.81956
5713,0.02513,8.81956
5714,0.02514,8.83627
5715,0.02515,8.83627
5716,0.02516,8.86968
5717,0.02517,8.86968
5718,0.02518,8.88638
5719,0.02519,8.88638
5720,0.0252,8.90308
5721,0.02521,8.90308
5722,0.02522,8.91979
5723,0.02523,8.91979
5724,0.02524,8.93649
5725,0.02525,8.93649
5726,0.02526,8.95319
5727,0.02527,8.95319
5728,0.02528,8.9699
5729,0.02529,8.9699
5730,0.0253,8.9699
5731,0.02531,8.9866
5732,0.02532,8.9866
5733,0.02533,9.00331
5734,0.02534,9.00331
5735,0.02535,9.02001
5736,0.02536,9.02001
5737,0.02537,9.03671
5738,0.02538,9.03671
5739,0.02539,9.05342
5740,0.0254,9.05342
5741,0.02541,9.07012
5742,0.02542,9.07012
5743,0.02543,9.08682
5744,0.02544,9.12023
5745,0.02545,9.12023
5746,0.02546,9.13694
5747,0.02547,9.13694
5748,0.02548,9.13694
5749,0.02549,9.15364
5750,0.0255,9.15364
5751,0.02551,9.17034
5752,0.02552,9.17034
5753,0.02553,9.18705
5754,0.02554,9.18705
5755,0.02555,9.20375
5756,0.02556,9.20375
5757,0.02557,9.22045
5758,0.02558,9.22045
5759,0.02559,9.23716
5760,0.0256,9.23716
5761,0.02561,9.25386
5762,0.02562,9.25386
5763,0.02563,9.27057
5764,0.02564,9.27057
5765,0.02565,9.28727
5766,0.02566,9.28727
5767,0.02567,9.30397
5768,0.02568,9.30397
5769,0.02569,9.32068
5770,0.0257,9.32068
5771,0.02571,9.35408
5772,0.02572,9.35408
5773,0.02573,9.37079
5774,0.02574,9.37079
5775,0.02575,9.38749
5776,0.02576,9.38749
5777,0.02577,9.38749
5778,0.02578,9.40419
5779,0.02579,9.40419
5780,0.0258,9.4209
5781,0.02581,9.4209
5782,0.02582,9.4376
5783,0.02583,9.4376
5784,0.02584,9.45431
5785,0.02585,9.45431
5786,0.02586,9.45431
5787,0.02587,9.47101
5788,0.02588,9.47101
5789,0.02589,9.48771
5790,0.0259,9.48771
5791,0.02591,9.50442
5792,0.02592,9.50442
5793,0.02593,9.52112
5794,0.02594,9.52112
5795,0.02595,9.53782
5796,0.02596,9.53782
5797,0.02597,9.55453
5798,0.02598,9.55453
5799,0.02599,9.57123
5800,0.026,9.57123
5801,0.02601,9.60464
5802,0.02602,9.60464
5803,0.02603,9.62134
5804,0.02604,9.62134
5805,0.02605,9.63805
5806,0.02606,9.63805
5807,0.02607,9.65475
5808,0.02608,9.65475
5809,0.02609,9.67145
5810,0.0261,9.67145
5811,0.02611,9.68816
5812,0.02612,9.68816
5813,0.02613,9.70486
5814,0.02614,9.70486
5815,0.02615,9.72157
5816,0.02616,9.72157
5817,0.02617,9.72157
5818,0.02618,9.75497
5819,0.02619,9.75497
5820,0.0262,9.75497
5821,0.02621,9.75497
5822,0.02622,9.78838
5823,0.02623,9.77168
5824,0.02624,9.80508
5825,0.02625,9.78838
5826,0.02626,9.82179
5827,0.02627,9.80508
5828,0.02628,9.8552
5829,0.02629,9.82179
5830,0.0263,9.8719
5831,0.02631,9.8552
5832,0.02632,9.8886
5833,0.02633,9.8719
5834,0.02634,9.90531
5835,0.02635,9.8886
5836,0.02636,9.92201
5837,0.02637,9.90531
5838,0.02638,9.93871
5839,0.02639,9.92201
5840,0.0264,9.93871
5841,0.02641,9.93871
5842,0.02642,9.93871
5843,0.02643,9.97212
5844,0.02644,9.95542
5845,0.02645,9.98883
5846,0.02646,9.97212
5847,0.02647,9.98883
5848,0.02648,9.98883
5849,0.02649,10.0055
5850,0.0265,10.0055
5851,0.02651,10.0222
5852,0.02652,10.0222
5853,0.02653,10.0389
5854,0.02654,10.0389
5855,0.02655,10.0723
5856,0.02656,10.0723
5857,0.02657,10.0723
5858,0.02658,10.1225
5859,0.02659,10.1058
5860,0.0266,10.1058
5861,0.02661,10.1392
5862,0.02662,10.1225
5863,0.02663,10.1392
5864,0.02664,10.1392
5865,0.02665,10.1559
5866,0.02666,10.1559
5867,0.02667,10.1726
5868,0.02668,10.1726
5869,0.02669,10.1893
5870,0.0267,10.1893
5871,0.02671,10.206
5872,0.02672,10.206
5873,0.02673,10.2227
5874,0.02674,10.2227
5875,0.02675,10.2227
5876,0.02676,10.2561
5877,0.02677,10.2394
5878,0.02678,10.2728
5879,0.02679,10.2561
5880,0.0268,10.2895
5881,0.02681,10.2728
5882,0.02682,10.3062
5883,0.02683,10.2895
5884,0.02684,10.3062
5885,0.02685,10.3062
5886,0.02686,10.3563
5887,0.02687,10.3396
5888,0.02688,10.3563
5889,0.02689,10.3563
5890,0.0269,10.3897
5891,0.02691,10.373
5892,0.02692,10.3897
5893,0.02693,10.3897
5894,0.02694,10.4064
5895,0.02695,10.4064
5896,0.02696,10.4231
5897,0.02697,10.4231
5898,0.02698,10.4398
5899,0.02699,10.4398
5900,0.027,10.4398
5901,0.02701,10.4732
5902,0.02702,10.4565
5903,0.02703,10.4899
5904,0.02704,10.4732
5905,0.02705,10.4899
5906,0.02706,10.4899
5907,0.02707,10.5066
5908,0.02708,10.5066
5909,0.02709,10.5066
5910,0.0271,10.54
5911,0.02711,10.5233
5912,0.02712,10.5568
5913,0.02713,10.54
5914,0.02714,10.5902
5915,0.02715,10.5568
5916,0.02716,10.6069
5917,0.02717,10.5902
5918,0.02718,10.6236
5919,0.02719,10.6069
5920,0.0272,10.6403
5921,0.02721,10.6236
5922,0.02722,10.6403
5923,0.02723,10.6403
5924,0.02724,10.6737
5925,0.02725,10.657
5926,0.02726,10.6904
5927,0.02727,10.6737
5928,0.02728,10.7071
5929,0.02729,10.7071
5930,0.0273,10.7071
5931,0.02731,10.7071
5932,0.02732,10.7238
5933,0.02733,10.7238
5934,0.02734,10.7405
5935,0.02735,10.7405
5936,0.02736,10.7405
5937,0.02737,10.7739
5938,0.02738,10.7572
5939,0.02739,10.7906
5940,0.0274,10.7739
5941,0.02741,10.8073
5942,0.02742,10.7906
5943,0.02743,10.8407
5944,0.02744,10.8073
5945,0.02745,10.8574
5946,0.02746,10.8407
5947,0.02747,10.8741
5948,0.02748,10.8574
5949,0.02749,10.8908
5950,0.0275,10.8741
5951,0.02751,10.9075
5952,0.02752,10.8908
5953,0.02753,10.9242
5954,0.02754,10.9242
5955,0.02755,10.9242
5956,0.02756,10.9242
5957,0.02757,10.9409
5958,0.02758,10.9409
5959,0.02759,10.9409
5960,0.0276,10.9743
5961,0.02761,10.9576
5962,0.02762,10.991
5963,0.02763,10.9743
5964,0.02764,11.0078
5965,0.02765,10.991
5966,0.02766,11.0245
5967,0.02767,11.0078
5968,0.02768,11.0412
5969,0.02769,11.0245
5970,0.0277,11.0579
5971,0.02771,11.0412
5972,0.02772,11.0913
5973,0.02773,11.0579
5974,0.02774,11.108
5975,0.02775,11.108
5976,0.02776,11.108
5977,0.02777,11.108
5978,0.02778,11.1414
5979,0.02779,11.1247
5980,0.0278,11.1581
5981,0.02781,11.1581
5982,0.02782,11.1581
5983,0.02783,11.1748
5984,0.02784,11.1748
5985,0.02785,11.1915
5986,0.02786,11.1915
5987,0.02787,11.2082
5988,0.02788,11.2082
5989,0.02789,11.2082
5990,0.0279,11.2082
5991,0.02791,11.2416
5992,0.02792,11.2249
5993,0.02793,11.2583
5994,0.02794,11.2583
5995,0.02795,11.2583
5996,0.02796,11.275
5997,0.02797,11.275
5998,0.02798,11.2917
5999,0.02799,11.2917
6000,0.028,11.3251
6001,0.02801,11.3251
6002,0.02802,11.3251
6003,0.02803,11.3585
6004,0.02804,11.3418
6005,0.02805,11.3752
6006,0.02806,11.3752
6007,0.02807,11.3752
6008,0.02808,11.3919
6009,0.02809,11.3919
6010,0.0281,11.3919
6011,0.02811,11.4253
6012,0.02812,11.4253
6013,0.02813,11.4253
6014,0.02814,11.442
6015,0.02815,11.4253
6016,0.02816,11.4588
6017,0.02817,11.442
6018,0.02818,11.4755
6019,0.02819,11.4588
6020,0.0282,11.4922
6021,0.02821,11.4922
6022,0.02822,11.4922
6023,0.02823,11.5089
6024,0.02824,11.5089
6025,0.02825,11.5256
6026,0.02826,11.5256
6027,0.02827,11.5423
6028,0.02828,11.5423
6029,0.02829,11.5757
6030,0.0283,11.5757
6031,0.02831,11.5924
6032,0.02832,11.5924
6033,0.02833,11.6091
6034,0.02834,11.6091
6035,0.02835,11.6258
6036,0.02836,11.6258
6037,0.02837,11.6425
6038,0.02838,11.6258
6039,0.02839,11.6592
6040,0.0284,11.6592
6041,0.02841,11.6592
6042,0.02842,11.6759
6043,0.02843,11.6759
6044,0.02844,11.6926
6045,0.02845,11.6926
6046,0.02846,11.7093
6047,0.02847,11.7093
6048,0.02848,11.726
6049,0.02849,11.726
6050,0.0285,11.7427
6051,0.02851,11.7427
6052,0.02852,11.7594
6053,0.02853,11.7594
6054,0.02854,11.7761
6055,0.02855,11.7761
6056,0.02856,11.7928
6057,0.02857,11.7928
6058,0.02858,11.8262
6059,0.02859,11.7928
6060,0.0286,11.8429
6061,0.02861,11.8262
6062,0.02862,11.8596
6063,0.02863,11.8429
6064,0.02864,11.8763
6065,0.02865,11.8763
6066,0.02866,11.8763
6067,0.02867,11.893
6068,0.02868,11.893
6069,0.02869,11.893
6070,0.0287,11.9265
6071,0.02871,11.9265
6072,0.02872,11.9098
6073,0.02873,11.9432
6074,0.02874,11.9265
6075,0.02875,11.9599
6076,0.02876,11.9599
6077,0.02877,11.9599
6078,0.02878,11.9599
6079,0.02879,11.9933
6080,0.0288,11.9933
6081,0.02881,11.9933
6082,0.02882,11.9933
6083,0.02883,12.0267
6084,0.02884,12.0267
6085,0.02885,12.0267
6086,0.02886,12.0267
6087,0.02887,12.0768
6088,0.02888,12.0768
6089,0.02889,12.0935
6090,0.0289,12.0935
6091,0.02891,12.1102
6092,0.02892,12.0935
6093,0.02893,12.1269
6094,0.02894,12.1269
6095,0.02895,12.1269
6096,0.02896,12.1436
6097,0.02897,12.1436
6098,0.02898,12.1603
6099,0.02899,12.1436
6100,0.029,12.177
6101,0.02901,12.1603
6102,0.02902,12.1937
6103,0.02903,12.177
6104,0.02904,12.2104
6105,0.02905,12.2104
6106,0.02906,12.2104
6107,0.02907,12.2104
6108,0.02908,12.2438
6109,0.02909,12.2438
6110,0.0291,12.2438
6111,0.02911,12.2438
6112,0.02912,12.2772
6113,0.02913,12.2772
6114,0.02914,12.2772
6115,0.02915,12.3106
6116,0.02916,12.3106
6117,0.02917,12.3273
6118,0.02918,12.3273
6119,0.02919,12.3441
6120,0.0292,12.2438
6121,0.02921,12.8786
6122,0.02922,3.62471
6123,0.02923,-0.517815
6124,0.02924,-0.701556
6125,0.02925,-0.668149
6126,0.02926,-0.634741
6127,0.02927,-0.551223
6128,0.02928,-0.534519
6129,0.02929,-0.451
6130,0.0293,-0.434297
6131,0.02931,-0.400889
6132,0.02932,-0.384186
6133,0.02933,-0.350778
6134,0.02934,-0.334074
6135,0.02935,-0.334074
6136,0.02936,-0.0668149
6137,0.02937,-0.0835186
6138,0.02938,-0.0501112
6139,0.02939,-0.0668149
6140,0.0294,-0.0668149
6141,0.02941,-0.0668149
6142,0.02942,-0.0668149
6143,0.02943,-0.0668149
6144,0.02944,-0.0668149
6145,0.02945,-0.0668149
6146,0.02946,-0.0668149
6147,0.02947,-0.0668149
6148,0.02948,-0.0668149
6149,0.02949,-0.0668149
6150,0.0295,-0.0668149
6151,0.02951,-0.0668149
6152,0.02952,-0.0668149
6153,0.02953,-0.0668149
6154,0.02954,-0.0668149
6155,0.02955,-0.0668149
6156,0.02956,-0.0668149
6157,0.02957,-0.0668149
6158,0.02958,-0.0668149
6159,0.02959,-0.0668149
6160,0.0296,-0.0668149
6161,0.02961,-0.0668149
6162,0.02962,-0.0668149
6163,0.02963,-0.0668149
6164,0.02964,-0.0668149
6165,0.02965,-0.0668149
6166,0.02966,-0.0668149
6167,0.02967,-0.0668149
6168,0.02968,-0.0668149
6169,0.02969,-0.0668149
6170,0.0297,-0.0668149
6171,0.02971,-0.0668149
6172,0.02972,-0.0668149
6173,0.02973,-0.0668149
6174,0.02974,-0.0668149
6175,0.02975,-0.0668149
6176,0.02976,-0.0668149
6177,0.02977,-0.0668149
6178,0.02978,-0.0668149
6179,0.02979,-0.0668149
6180,0.0298,-0.0501112
6181,0.02981,-0.0835186
6182,0.02982,-0.0501112
6183,0.02983,-0.0501112
6184,0.02984,-0.0668149
6185,0.02985,-0.0668149
6186,0.02986,-0.0668149
6187,0.02987,-0.0668149
6188,0.02988,-0.0668149
6189,0.02989,-0.0668149
6190,0.0299,-0.0668149
6191,0.02991,-0.0668149
6192,0.02992,-0.0668149
6193,0.02993,-0.0668149
6194,0.02994,-0.0668149
6195,0.02995,-0.0668149
6196,0.02996,-0.0668149
6197,0.02997,-0.0668149
6198,0.02998,-0.0668149
6199,0.02999,-0.0668149
6200,0.03,-0.0668149
6201,0.03001,-0.0668149
6202,0.03002,-0.0668149
6203,0.03003,-0.0668149
6204,0.03004,-0.0668149
6205,0.03005,-0.0668149
6206,0.03006,-0.0668149
6207,0.03007,-0.0668149
6208,0.03008,-0.0668149
6209,0.03009,-0.0668149
6210,0.0301,-0.0668149
6211,0.03011,-0.0668149
6212,0.03012,-0.0668149
6213,0.03013,-0.0668149
6214,0.03014,-0.0668149
6215,0.03015,-0.0668149
6216,0.03016,-0.0668149
6217,0.03017,-0.0668149
6218,0.03018,-0.0668149
6219,0.03019,-0.0668149
6220,0.0302,-0.0668149
6221,0.03021,-0.0668149
6222,0.03022,-0.0668149
6223,0.03023,-0.0668149
6224,0.03024,-0.0668149
6225,0.03025,-0.0668149
6226,0.03026,-0.0668149
6227,0.03027,-0.0668149
6228,0.03028,-0.0668149
6229,0.03029,-0.0668149
6230,0.0303,-0.0668149
6231,0.03031,-0.0668149
6232,0.03032,-0.0668149
6233,0.03033,-0.0668149
6234,0.03034,-0.0668149
6235,0.03035,-0.0668149
6236,0.03036,-0.0668149
6237,0.03037,-0.0668149
6238,0.03038,-0.0668149
6239,0.03039,-0.0668149
6240,0.0304,-0.0668149
6241,0.03041,-0.0668149
6242,0.03042,-0.0668149
6243,0.03043,-0.0668149
6244,0.03044,-0.0668149
6245,0.03045,-0.0668149
6246,0.03046,-0.0501112
6247,0.03047,-0.0501112
6248,0.03048,-0.0501112
6249,0.03049,-0.0501112
6250,0.0305,0
6251,0.03051,0
6252,0.03052,0
6253,0.03053,0.0167037
6254,0.03054,0.0167037
6255,0.03055,0.0501112
6256,0.03056,0.0668149
6257,0.03057,0.0668149
6258,0.03058,0.0835186
6259,0.03059,0.0835186
6260,0.0306,0.0835186
6261,0.03061,0.116926
6262,0.03062,0.13363
6263,0.03063,0.13363
6264,0.03064,0.116926
6265,0.03065,0.150333
6266,0.03066,0.13363
6267,0.03067,0.167037
6268,0.03068,0.150333
6269,0.03069,0.183741
6270,0.0307,0.183741
6271,0.03071,0.167037
6272,0.03072,0.200445
6273,0.03073,0.200445
6274,0.03074,0.200445
6275,0.03075,0.200445
6276,0.03076,0.250556
6277,0.03077,0.217148
6278,0.03078,0.26726
6279,0.03079,0.250556
6280,0.0308,0.283963
6281,0.03081,0.26726
6282,0.03082,0.300667
6283,0.03083,0.300667
6284,0.03084,0.317371
6285,0.03085,0.317371
6286,0.03086,0.334074
6287,0.03087,0.334074
6288,0.03088,0.350778
6289,0.03089,0.350778
6290,0.0309,0.384186
6291,0.03091,0.384186
6292,0.03092,0.400889
6293,0.03093,0.400889
6294,0.03094,0.417593
6295,0.03095,0.417593
6296,0.03096,0.417593
6297,0.03097,0.434297
6298,0.03098,0.434297
6299,0.03099,0.451
6300,0.031,0.434297
6301,0.03101,0.467704
6302,0.03102,0.451
6303,0.03103,0.501112
6304,0.03104,0.467704
6305,0.03105,0.517815
6306,0.03106,0.517815
6307,0.03107,0.517815
6308,0.03108,0.551223
6309,0.03109,0.534519
6310,0.0311,0.567927
6311,0.03111,0.567927
6312,0.03112,0.58463
6313,0.03113,0.567927
6314,0.03114,0.601334
6315,0.03115,0.58463
6316,0.03116,0.618038
6317,0.03117,0.618038
6318,0.03118,0.618038
6319,0.03119,0.618038
6320,0.0312,0.651445
6321,0.03121,0.651445
6322,0.03122,0.668149
6323,0.03123,0.668149
6324,0.03124,0.684853
6325,0.03125,0.684853
6326,0.03126,0.684853
6327,0.03127,0.71826
6328,0.03128,0.71826
6329,0.03129,0.71826
6330,0.0313,0.71826
6331,0.03131,0.768371
6332,0.03132,0.751667
6333,0.03133,0.785075
6334,0.03134,0.768371
6335,0.03135,0.801779
6336,0.03136,0.785075
6337,0.03137,0.818482
6338,0.03138,0.801779
6339,0.03139,0.835186
6340,0.0314,0.835186
6341,0.03141,0.85189
6342,0.03142,0.85189
6343,0.03143,0.868594
6344,0.03144,0.868594
6345,0.03145,0.885297
6346,0.03146,0.885297
6347,0.03147,0.902001
6348,0.03148,0.902001
6349,0.03149,0.902001
6350,0.0315,0.935408
6351,0.03151,0.935408
6352,0.03152,0.935408
6353,0.03153,0.952112
6354,0.03154,0.952112
6355,0.03155,0.98552
6356,0.03156,0.98552
6357,0.03157,1.00222
6358,0.03158,1.00222
6359,0.03159,1.00222
6360,0.0316,1.03563
6361,0.03161,1.03563
6362,0.03162,1.03563
6363,0.03163,1.06904
6364,0.03164,1.06904
6365,0.03165,1.06904
6366,0.03166,1.08574
6367,0.03167,1.08574
6368,0.03168,1.10245
6369,0.03169,1.10245
6370,0.0317,1.11915
6371,0.03171,1.11915
6372,0.03172,1.13585
6373,0.03173,1.13585
6374,0.03174,1.13585
6375,0.03175,1.16926
6376,0.03176,1.15256
6377,0.03177,1.18596
6378,0.03178,1.18596
6379,0.03179,1.18596
6380,0.0318,1.20267
6381,0.03181,1.20267
6382,0.03182,1.23608
6383,0.03183,1.23608
6384,0.03184,1.23608
6385,0.03185,1.26948
6386,0.03186,1.25278
6387,0.03187,1.28619
6388,0.03188,1.26948
6389,0.03189,1.30289
6390,0.0319,1.30289
6391,0.03191,1.31959
6392,0.03192,1.31959
6393,0.03193,1.3363
6394,0.03194,1.3363
6395,0.03195,1.353
6396,0.03196,1.353
6397,0.03197,1.36971
6398,0.03198,1.36971
6399,0.03199,1.38641
