;Scopy version,f4beeb1
;Exported on,Wednesday May 15/05/2024
;Device,M2K
;Nr of samples,6400
;Sample rate,100000
;Tool,Oscilloscope
;Additional Information,
Sample,Time(S),CH1(V)
0,-0.032,0.200445
1,-0.03199,0.200445
2,-0.03198,0.200445
3,-0.03197,0.200445
4,-0.03196,0.200445
5,-0.03195,0.200445
6,-0.03194,0.200445
7,-0.03193,0.200445
8,-0.03192,0.200445
9,-0.03191,0.200445
10,-0.0319,0.200445
11,-0.03189,0.200445
12,-0.03188,0.200445
13,-0.03187,0.200445
14,-0.03186,0.200445
15,-0.03185,0.200445
16,-0.03184,0.200445
17,-0.03183,0.200445
18,-0.03182,0.200445
19,-0.03181,0.183741
20,-0.0318,0.217148
21,-0.03179,0.217148
22,-0.03178,0.26726
23,-0.03177,1.67037
24,-0.03176,4.71045
25,-0.03175,4.52671
26,-0.03174,4.62693
27,-0.03173,4.72715
28,-0.03172,4.84408
29,-0.03171,4.99441
30,-0.0317,5.14475
31,-0.03169,5.32849
32,-0.03168,5.57904
33,-0.03167,5.86301
34,-0.03166,6.31401
35,-0.03165,7.56679
36,-0.03164,15.0166
37,-0.03163,14.3819
38,-0.03162,14.432
39,-0.03161,14.3819
40,-0.0316,14.3485
41,-0.03159,14.3151
42,-0.03158,14.2984
43,-0.03157,14.2817
44,-0.03156,14.2817
45,-0.03155,14.2316
46,-0.03154,14.2316
47,-0.03153,14.2316
48,-0.03152,14.2149
49,-0.03151,14.2149
50,-0.0315,14.2149
51,-0.03149,14.2149
52,-0.03148,14.2149
53,-0.03147,14.2149
54,-0.03146,14.2149
55,-0.03145,14.2149
56,-0.03144,14.2149
57,-0.03143,14.2149
58,-0.03142,14.2149
59,-0.03141,14.2149
60,-0.0314,14.2149
61,-0.03139,14.2149
62,-0.03138,14.2149
63,-0.03137,14.2149
64,-0.03136,14.2149
65,-0.03135,14.2149
66,-0.03134,14.2149
67,-0.03133,14.2149
68,-0.03132,14.2149
69,-0.03131,14.2149
70,-0.0313,14.2149
71,-0.03129,14.2149
72,-0.03128,14.2149
73,-0.03127,14.2149
74,-0.03126,14.2149
75,-0.03125,14.2149
76,-0.03124,14.2149
77,-0.03123,14.2149
78,-0.03122,14.2149
79,-0.03121,14.2149
80,-0.0312,14.2149
81,-0.03119,14.2149
82,-0.03118,14.2149
83,-0.03117,14.2149
84,-0.03116,14.2149
85,-0.03115,14.2149
86,-0.03114,14.2149
87,-0.03113,14.2149
88,-0.03112,14.2149
89,-0.03111,14.2149
90,-0.0311,14.2149
91,-0.03109,14.2149
92,-0.03108,14.2149
93,-0.03107,14.2149
94,-0.03106,14.2149
95,-0.03105,14.2149
96,-0.03104,14.2149
97,-0.03103,14.2149
98,-0.03102,14.2149
99,-0.03101,14.2149
100,-0.031,14.2149
101,-0.03099,14.2149
102,-0.03098,14.2149
103,-0.03097,14.2149
104,-0.03096,14.2149
105,-0.03095,14.2149
106,-0.03094,14.2149
107,-0.03093,14.2149
108,-0.03092,14.2149
109,-0.03091,14.2149
110,-0.0309,14.2149
111,-0.03089,14.2149
112,-0.03088,14.2149
113,-0.03087,14.2149
114,-0.03086,14.2149
115,-0.03085,14.2149
116,-0.03084,14.2149
117,-0.03083,14.2149
118,-0.03082,14.2149
119,-0.03081,14.2149
120,-0.0308,14.2149
121,-0.03079,14.2149
122,-0.03078,14.2149
123,-0.03077,14.2149
124,-0.03076,14.2149
125,-0.03075,14.2149
126,-0.03074,14.2149
127,-0.03073,14.2149
128,-0.03072,14.2149
129,-0.03071,14.2149
130,-0.0307,14.2149
131,-0.03069,14.2149
132,-0.03068,14.2149
133,-0.03067,14.2149
134,-0.03066,14.2149
135,-0.03065,14.2149
136,-0.03064,14.2149
137,-0.03063,14.2149
138,-0.03062,14.2149
139,-0.03061,14.2149
140,-0.0306,14.2149
141,-0.03059,14.2149
142,-0.03058,14.2149
143,-0.03057,14.2149
144,-0.03056,14.2149
145,-0.03055,14.2149
146,-0.03054,14.2149
147,-0.03053,14.2149
148,-0.03052,14.2149
149,-0.03051,14.2149
150,-0.0305,14.1648
151,-0.03049,14.9498
152,-0.03048,4.45989
153,-0.03047,-0.150333
154,-0.03046,-0.116926
155,-0.03045,-0.0668149
156,-0.03044,0
157,-0.03043,0.0334074
158,-0.03042,0.0835186
159,-0.03041,0.116926
160,-0.0304,0.13363
161,-0.03039,0.167037
162,-0.03038,0.183741
163,-0.03037,0.167037
164,-0.03036,0.200445
165,-0.03035,0.200445
166,-0.03034,0.200445
167,-0.03033,0.200445
168,-0.03032,0.217148
169,-0.03031,0.217148
170,-0.0303,0.217148
171,-0.03029,0.217148
172,-0.03028,0.217148
173,-0.03027,0.217148
174,-0.03026,0.200445
175,-0.03025,0.200445
176,-0.03024,0.200445
177,-0.03023,0.200445
178,-0.03022,0.200445
179,-0.03021,0.200445
180,-0.0302,0.200445
181,-0.03019,0.200445
182,-0.03018,0.200445
183,-0.03017,0.200445
184,-0.03016,0.200445
185,-0.03015,0.200445
186,-0.03014,0.200445
187,-0.03013,0.200445
188,-0.03012,0.217148
189,-0.03011,0.183741
190,-0.0301,0.200445
191,-0.03009,0.200445
192,-0.03008,0.200445
193,-0.03007,0.200445
194,-0.03006,0.200445
195,-0.03005,0.200445
196,-0.03004,0.200445
197,-0.03003,0.200445
198,-0.03002,0.200445
199,-0.03001,0.200445
200,-0.03,0.200445
201,-0.02999,0.200445
202,-0.02998,0.200445
203,-0.02997,0.200445
204,-0.02996,0.200445
205,-0.02995,0.200445
206,-0.02994,0.200445
207,-0.02993,0.200445
208,-0.02992,0.200445
209,-0.02991,0.200445
210,-0.0299,0.200445
211,-0.02989,0.200445
212,-0.02988,0.200445
213,-0.02987,0.200445
214,-0.02986,0.200445
215,-0.02985,0.200445
216,-0.02984,0.200445
217,-0.02983,0.200445
218,-0.02982,0.200445
219,-0.02981,0.200445
220,-0.0298,0.200445
221,-0.02979,0.200445
222,-0.02978,0.200445
223,-0.02977,0.200445
224,-0.02976,0.200445
225,-0.02975,0.200445
226,-0.02974,0.200445
227,-0.02973,0.200445
228,-0.02972,0.200445
229,-0.02971,0.200445
230,-0.0297,0.200445
231,-0.02969,0.200445
232,-0.02968,0.200445
233,-0.02967,0.200445
234,-0.02966,0.200445
235,-0.02965,0.200445
236,-0.02964,0.200445
237,-0.02963,0.200445
238,-0.02962,0.200445
239,-0.02961,0.200445
240,-0.0296,0.200445
241,-0.02959,0.200445
242,-0.02958,0.200445
243,-0.02957,0.200445
244,-0.02956,0.200445
245,-0.02955,0.200445
246,-0.02954,0.200445
247,-0.02953,0.200445
248,-0.02952,0.200445
249,-0.02951,0.200445
250,-0.0295,0.200445
251,-0.02949,0.200445
252,-0.02948,0.200445
253,-0.02947,0.200445
254,-0.02946,0.200445
255,-0.02945,0.200445
256,-0.02944,0.200445
257,-0.02943,0.200445
258,-0.02942,0.200445
259,-0.02941,0.200445
260,-0.0294,0.200445
261,-0.02939,0.200445
262,-0.02938,0.200445
263,-0.02937,0.200445
264,-0.02936,0.200445
265,-0.02935,0.200445
266,-0.02934,0.200445
267,-0.02933,0.200445
268,-0.02932,0.200445
269,-0.02931,0.200445
270,-0.0293,0.200445
271,-0.02929,0.200445
272,-0.02928,0.200445
273,-0.02927,0.200445
274,-0.02926,0.200445
275,-0.02925,0.200445
276,-0.02924,0.200445
277,-0.02923,0.200445
278,-0.02922,0.200445
279,-0.02921,0.200445
280,-0.0292,0.200445
281,-0.02919,0.200445
282,-0.02918,0.200445
283,-0.02917,0.200445
284,-0.02916,0.200445
285,-0.02915,0.200445
286,-0.02914,0.200445
287,-0.02913,0.200445
288,-0.02912,0.200445
289,-0.02911,0.200445
290,-0.0291,0.200445
291,-0.02909,0.200445
292,-0.02908,0.200445
293,-0.02907,0.200445
294,-0.02906,0.200445
295,-0.02905,0.200445
296,-0.02904,0.200445
297,-0.02903,0.200445
298,-0.02902,0.200445
299,-0.02901,0.200445
300,-0.029,0.200445
301,-0.02899,0.200445
302,-0.02898,0.200445
303,-0.02897,0.200445
304,-0.02896,0.200445
305,-0.02895,0.200445
306,-0.02894,0.200445
307,-0.02893,0.200445
308,-0.02892,0.200445
309,-0.02891,0.200445
310,-0.0289,0.200445
311,-0.02889,0.200445
312,-0.02888,0.200445
313,-0.02887,0.200445
314,-0.02886,0.200445
315,-0.02885,0.200445
316,-0.02884,0.200445
317,-0.02883,0.200445
318,-0.02882,0.200445
319,-0.02881,0.200445
320,-0.0288,0.200445
321,-0.02879,0.200445
322,-0.02878,0.200445
323,-0.02877,0.200445
324,-0.02876,0.200445
325,-0.02875,0.200445
326,-0.02874,0.200445
327,-0.02873,0.200445
328,-0.02872,0.200445
329,-0.02871,0.200445
330,-0.0287,0.200445
331,-0.02869,0.200445
332,-0.02868,0.200445
333,-0.02867,0.200445
334,-0.02866,0.200445
335,-0.02865,0.200445
336,-0.02864,0.200445
337,-0.02863,0.200445
338,-0.02862,0.200445
339,-0.02861,0.200445
340,-0.0286,0.200445
341,-0.02859,0.200445
342,-0.02858,0.200445
343,-0.02857,0.200445
344,-0.02856,0.200445
345,-0.02855,0.200445
346,-0.02854,0.200445
347,-0.02853,0.200445
348,-0.02852,0.200445
349,-0.02851,0.200445
350,-0.0285,0.200445
351,-0.02849,0.200445
352,-0.02848,0.200445
353,-0.02847,0.200445
354,-0.02846,0.200445
355,-0.02845,0.200445
356,-0.02844,0.200445
357,-0.02843,0.200445
358,-0.02842,0.200445
359,-0.02841,0.200445
360,-0.0284,0.200445
361,-0.02839,0.200445
362,-0.02838,0.200445
363,-0.02837,0.200445
364,-0.02836,0.200445
365,-0.02835,0.200445
366,-0.02834,0.200445
367,-0.02833,0.200445
368,-0.02832,0.200445
369,-0.02831,0.200445
370,-0.0283,0.200445
371,-0.02829,0.200445
372,-0.02828,0.200445
373,-0.02827,0.200445
374,-0.02826,0.200445
375,-0.02825,0.200445
376,-0.02824,0.200445
377,-0.02823,0.200445
378,-0.02822,0.200445
379,-0.02821,0.200445
380,-0.0282,0.200445
381,-0.02819,0.200445
382,-0.02818,0.200445
383,-0.02817,0.200445
384,-0.02816,0.200445
385,-0.02815,0.200445
386,-0.02814,0.200445
387,-0.02813,0.200445
388,-0.02812,0.200445
389,-0.02811,0.200445
390,-0.0281,0.200445
391,-0.02809,0.200445
392,-0.02808,0.200445
393,-0.02807,0.200445
394,-0.02806,0.200445
395,-0.02805,0.200445
396,-0.02804,0.200445
397,-0.02803,0.200445
398,-0.02802,0.200445
399,-0.02801,0.200445
400,-0.028,0.200445
401,-0.02799,0.200445
402,-0.02798,0.200445
403,-0.02797,0.200445
404,-0.02796,0.200445
405,-0.02795,0.200445
406,-0.02794,0.200445
407,-0.02793,0.200445
408,-0.02792,0.200445
409,-0.02791,0.200445
410,-0.0279,0.200445
411,-0.02789,0.200445
412,-0.02788,0.200445
413,-0.02787,0.200445
414,-0.02786,0.200445
415,-0.02785,0.200445
416,-0.02784,0.200445
417,-0.02783,0.200445
418,-0.02782,0.200445
419,-0.02781,0.200445
420,-0.0278,0.200445
421,-0.02779,0.200445
422,-0.02778,0.200445
423,-0.02777,0.200445
424,-0.02776,0.200445
425,-0.02775,0.200445
426,-0.02774,0.200445
427,-0.02773,0.200445
428,-0.02772,0.200445
429,-0.02771,0.200445
430,-0.0277,0.200445
431,-0.02769,0.200445
432,-0.02768,0.200445
433,-0.02767,0.200445
434,-0.02766,0.200445
435,-0.02765,0.200445
436,-0.02764,0.200445
437,-0.02763,0.200445
438,-0.02762,0.200445
439,-0.02761,0.200445
440,-0.0276,0.200445
441,-0.02759,0.200445
442,-0.02758,0.200445
443,-0.02757,0.200445
444,-0.02756,0.200445
445,-0.02755,0.200445
446,-0.02754,0.200445
447,-0.02753,0.200445
448,-0.02752,0.200445
449,-0.02751,0.200445
450,-0.0275,0.200445
451,-0.02749,0.200445
452,-0.02748,0.200445
453,-0.02747,0.200445
454,-0.02746,0.200445
455,-0.02745,0.200445
456,-0.02744,0.200445
457,-0.02743,0.200445
458,-0.02742,0.200445
459,-0.02741,0.200445
460,-0.0274,0.200445
461,-0.02739,0.200445
462,-0.02738,0.200445
463,-0.02737,0.200445
464,-0.02736,0.200445
465,-0.02735,0.200445
466,-0.02734,0.200445
467,-0.02733,0.200445
468,-0.02732,0.200445
469,-0.02731,0.200445
470,-0.0273,0.200445
471,-0.02729,0.200445
472,-0.02728,0.200445
473,-0.02727,0.200445
474,-0.02726,0.200445
475,-0.02725,0.200445
476,-0.02724,0.200445
477,-0.02723,0.200445
478,-0.02722,0.200445
479,-0.02721,0.200445
480,-0.0272,0.200445
481,-0.02719,0.200445
482,-0.02718,0.200445
483,-0.02717,0.200445
484,-0.02716,0.200445
485,-0.02715,0.200445
486,-0.02714,0.200445
487,-0.02713,0.200445
488,-0.02712,0.200445
489,-0.02711,0.200445
490,-0.0271,0.200445
491,-0.02709,0.200445
492,-0.02708,0.200445
493,-0.02707,0.200445
494,-0.02706,0.200445
495,-0.02705,0.200445
496,-0.02704,0.200445
497,-0.02703,0.200445
498,-0.02702,0.200445
499,-0.02701,0.200445
500,-0.027,0.200445
501,-0.02699,0.200445
502,-0.02698,0.200445
503,-0.02697,0.200445
504,-0.02696,0.200445
505,-0.02695,0.200445
506,-0.02694,0.200445
507,-0.02693,0.200445
508,-0.02692,0.200445
509,-0.02691,0.200445
510,-0.0269,0.200445
511,-0.02689,0.200445
512,-0.02688,0.200445
513,-0.02687,0.200445
514,-0.02686,0.200445
515,-0.02685,0.200445
516,-0.02684,0.200445
517,-0.02683,0.200445
518,-0.02682,0.200445
519,-0.02681,0.200445
520,-0.0268,0.200445
521,-0.02679,0.200445
522,-0.02678,0.200445
523,-0.02677,0.200445
524,-0.02676,0.200445
525,-0.02675,0.200445
526,-0.02674,0.200445
527,-0.02673,0.200445
528,-0.02672,0.200445
529,-0.02671,0.200445
530,-0.0267,0.200445
531,-0.02669,0.200445
532,-0.02668,0.200445
533,-0.02667,0.200445
534,-0.02666,0.200445
535,-0.02665,0.200445
536,-0.02664,0.200445
537,-0.02663,0.200445
538,-0.02662,0.200445
539,-0.02661,0.200445
540,-0.0266,0.200445
541,-0.02659,0.200445
542,-0.02658,0.200445
543,-0.02657,0.200445
544,-0.02656,0.200445
545,-0.02655,0.200445
546,-0.02654,0.200445
547,-0.02653,0.200445
548,-0.02652,0.200445
549,-0.02651,0.200445
550,-0.0265,0.200445
551,-0.02649,0.200445
552,-0.02648,0.200445
553,-0.02647,0.200445
554,-0.02646,0.200445
555,-0.02645,0.200445
556,-0.02644,0.200445
557,-0.02643,0.200445
558,-0.02642,0.200445
559,-0.02641,0.200445
560,-0.0264,0.200445
561,-0.02639,0.200445
562,-0.02638,0.200445
563,-0.02637,0.200445
564,-0.02636,0.200445
565,-0.02635,0.200445
566,-0.02634,0.200445
567,-0.02633,0.200445
568,-0.02632,0.200445
569,-0.02631,0.200445
570,-0.0263,0.200445
571,-0.02629,0.200445
572,-0.02628,0.200445
573,-0.02627,0.200445
574,-0.02626,0.200445
575,-0.02625,0.200445
576,-0.02624,0.200445
577,-0.02623,0.200445
578,-0.02622,0.200445
579,-0.02621,0.200445
580,-0.0262,0.200445
581,-0.02619,0.200445
582,-0.02618,0.200445
583,-0.02617,0.200445
584,-0.02616,0.200445
585,-0.02615,0.200445
586,-0.02614,0.200445
587,-0.02613,0.200445
588,-0.02612,0.200445
589,-0.02611,0.200445
590,-0.0261,0.200445
591,-0.02609,0.200445
592,-0.02608,0.200445
593,-0.02607,0.200445
594,-0.02606,0.200445
595,-0.02605,0.200445
596,-0.02604,0.200445
597,-0.02603,0.200445
598,-0.02602,0.200445
599,-0.02601,0.200445
600,-0.026,0.200445
601,-0.02599,0.200445
602,-0.02598,0.200445
603,-0.02597,0.200445
604,-0.02596,0.200445
605,-0.02595,0.200445
606,-0.02594,0.200445
607,-0.02593,0.200445
608,-0.02592,0.200445
609,-0.02591,0.200445
610,-0.0259,0.200445
611,-0.02589,0.200445
612,-0.02588,0.200445
613,-0.02587,0.200445
614,-0.02586,0.200445
615,-0.02585,0.200445
616,-0.02584,0.200445
617,-0.02583,0.200445
618,-0.02582,0.200445
619,-0.02581,0.200445
620,-0.0258,0.200445
621,-0.02579,0.200445
622,-0.02578,0.200445
623,-0.02577,0.200445
624,-0.02576,0.200445
625,-0.02575,0.200445
626,-0.02574,0.200445
627,-0.02573,0.200445
628,-0.02572,0.200445
629,-0.02571,0.200445
630,-0.0257,0.200445
631,-0.02569,0.200445
632,-0.02568,0.200445
633,-0.02567,0.200445
634,-0.02566,0.200445
635,-0.02565,0.200445
636,-0.02564,0.200445
637,-0.02563,0.200445
638,-0.02562,0.200445
639,-0.02561,0.200445
640,-0.0256,0.200445
641,-0.02559,0.200445
642,-0.02558,0.200445
643,-0.02557,0.200445
644,-0.02556,0.200445
645,-0.02555,0.200445
646,-0.02554,0.200445
647,-0.02553,0.200445
648,-0.02552,0.200445
649,-0.02551,0.200445
650,-0.0255,0.200445
651,-0.02549,0.200445
652,-0.02548,0.200445
653,-0.02547,0.200445
654,-0.02546,0.200445
655,-0.02545,0.200445
656,-0.02544,0.200445
657,-0.02543,0.200445
658,-0.02542,0.200445
659,-0.02541,0.200445
660,-0.0254,0.200445
661,-0.02539,0.200445
662,-0.02538,0.200445
663,-0.02537,0.200445
664,-0.02536,0.200445
665,-0.02535,0.200445
666,-0.02534,0.200445
667,-0.02533,0.200445
668,-0.02532,0.200445
669,-0.02531,0.200445
670,-0.0253,0.200445
671,-0.02529,0.200445
672,-0.02528,0.200445
673,-0.02527,0.200445
674,-0.02526,0.200445
675,-0.02525,0.200445
676,-0.02524,0.200445
677,-0.02523,0.200445
678,-0.02522,0.200445
679,-0.02521,0.200445
680,-0.0252,0.200445
681,-0.02519,0.200445
682,-0.02518,0.200445
683,-0.02517,0.200445
684,-0.02516,0.200445
685,-0.02515,0.200445
686,-0.02514,0.200445
687,-0.02513,0.200445
688,-0.02512,0.200445
689,-0.02511,0.200445
690,-0.0251,0.200445
691,-0.02509,0.200445
692,-0.02508,0.200445
693,-0.02507,0.200445
694,-0.02506,0.200445
695,-0.02505,0.200445
696,-0.02504,0.200445
697,-0.02503,0.200445
698,-0.02502,0.200445
699,-0.02501,0.200445
700,-0.025,0.200445
701,-0.02499,0.200445
702,-0.02498,0.200445
703,-0.02497,0.200445
704,-0.02496,0.200445
705,-0.02495,0.200445
706,-0.02494,0.200445
707,-0.02493,0.200445
708,-0.02492,0.200445
709,-0.02491,0.200445
710,-0.0249,0.200445
711,-0.02489,0.200445
712,-0.02488,0.200445
713,-0.02487,0.200445
714,-0.02486,0.200445
715,-0.02485,0.200445
716,-0.02484,0.200445
717,-0.02483,0.200445
718,-0.02482,0.200445
719,-0.02481,0.200445
720,-0.0248,0.200445
721,-0.02479,0.200445
722,-0.02478,0.200445
723,-0.02477,0.200445
724,-0.02476,0.200445
725,-0.02475,0.200445
726,-0.02474,0.200445
727,-0.02473,0.200445
728,-0.02472,0.200445
729,-0.02471,0.200445
730,-0.0247,0.200445
731,-0.02469,0.200445
732,-0.02468,0.200445
733,-0.02467,0.200445
734,-0.02466,0.200445
735,-0.02465,0.200445
736,-0.02464,0.200445
737,-0.02463,0.200445
738,-0.02462,0.200445
739,-0.02461,0.200445
740,-0.0246,0.200445
741,-0.02459,0.200445
742,-0.02458,0.200445
743,-0.02457,0.200445
744,-0.02456,0.200445
745,-0.02455,0.200445
746,-0.02454,0.200445
747,-0.02453,0.200445
748,-0.02452,0.200445
749,-0.02451,0.200445
750,-0.0245,0.200445
751,-0.02449,0.200445
752,-0.02448,0.200445
753,-0.02447,0.200445
754,-0.02446,0.200445
755,-0.02445,0.200445
756,-0.02444,0.200445
757,-0.02443,0.200445
758,-0.02442,0.200445
759,-0.02441,0.200445
760,-0.0244,0.200445
761,-0.02439,0.200445
762,-0.02438,0.200445
763,-0.02437,0.200445
764,-0.02436,0.200445
765,-0.02435,0.200445
766,-0.02434,0.200445
767,-0.02433,0.200445
768,-0.02432,0.200445
769,-0.02431,0.200445
770,-0.0243,0.200445
771,-0.02429,0.200445
772,-0.02428,0.200445
773,-0.02427,0.200445
774,-0.02426,0.200445
775,-0.02425,0.200445
776,-0.02424,0.200445
777,-0.02423,0.200445
778,-0.02422,0.200445
779,-0.02421,0.200445
780,-0.0242,0.200445
781,-0.02419,0.200445
782,-0.02418,0.200445
783,-0.02417,0.200445
784,-0.02416,0.200445
785,-0.02415,0.200445
786,-0.02414,0.200445
787,-0.02413,0.200445
788,-0.02412,0.200445
789,-0.02411,0.200445
790,-0.0241,0.200445
791,-0.02409,0.200445
792,-0.02408,0.200445
793,-0.02407,0.200445
794,-0.02406,0.200445
795,-0.02405,0.200445
796,-0.02404,0.200445
797,-0.02403,0.200445
798,-0.02402,0.200445
799,-0.02401,0.200445
800,-0.024,0.200445
801,-0.02399,0.200445
802,-0.02398,0.200445
803,-0.02397,0.200445
804,-0.02396,0.200445
805,-0.02395,0.200445
806,-0.02394,0.200445
807,-0.02393,0.200445
808,-0.02392,0.200445
809,-0.02391,0.200445
810,-0.0239,0.200445
811,-0.02389,0.200445
812,-0.02388,0.200445
813,-0.02387,0.200445
814,-0.02386,0.200445
815,-0.02385,0.200445
816,-0.02384,0.200445
817,-0.02383,0.200445
818,-0.02382,0.200445
819,-0.02381,0.200445
820,-0.0238,0.200445
821,-0.02379,0.200445
822,-0.02378,0.200445
823,-0.02377,0.200445
824,-0.02376,0.200445
825,-0.02375,0.200445
826,-0.02374,0.200445
827,-0.02373,0.200445
828,-0.02372,0.200445
829,-0.02371,0.200445
830,-0.0237,0.200445
831,-0.02369,0.200445
832,-0.02368,0.200445
833,-0.02367,0.200445
834,-0.02366,0.200445
835,-0.02365,0.200445
836,-0.02364,0.200445
837,-0.02363,0.200445
838,-0.02362,0.200445
839,-0.02361,0.200445
840,-0.0236,0.200445
841,-0.02359,0.200445
842,-0.02358,0.200445
843,-0.02357,0.200445
844,-0.02356,0.200445
845,-0.02355,0.200445
846,-0.02354,0.200445
847,-0.02353,0.200445
848,-0.02352,0.200445
849,-0.02351,0.200445
850,-0.0235,0.200445
851,-0.02349,0.200445
852,-0.02348,0.200445
853,-0.02347,0.200445
854,-0.02346,0.200445
855,-0.02345,0.200445
856,-0.02344,0.200445
857,-0.02343,0.200445
858,-0.02342,0.200445
859,-0.02341,0.200445
860,-0.0234,0.200445
861,-0.02339,0.200445
862,-0.02338,0.200445
863,-0.02337,0.200445
864,-0.02336,0.200445
865,-0.02335,0.200445
866,-0.02334,0.200445
867,-0.02333,0.200445
868,-0.02332,0.200445
869,-0.02331,0.200445
870,-0.0233,0.200445
871,-0.02329,0.200445
872,-0.02328,0.200445
873,-0.02327,0.200445
874,-0.02326,0.200445
875,-0.02325,0.200445
876,-0.02324,0.200445
877,-0.02323,0.200445
878,-0.02322,0.200445
879,-0.02321,0.200445
880,-0.0232,0.200445
881,-0.02319,0.200445
882,-0.02318,0.200445
883,-0.02317,0.200445
884,-0.02316,0.200445
885,-0.02315,0.200445
886,-0.02314,0.200445
887,-0.02313,0.200445
888,-0.02312,0.200445
889,-0.02311,0.200445
890,-0.0231,0.200445
891,-0.02309,0.200445
892,-0.02308,0.200445
893,-0.02307,0.200445
894,-0.02306,0.200445
895,-0.02305,0.200445
896,-0.02304,0.200445
897,-0.02303,0.200445
898,-0.02302,0.200445
899,-0.02301,0.200445
900,-0.023,0.200445
901,-0.02299,0.200445
902,-0.02298,0.200445
903,-0.02297,0.200445
904,-0.02296,0.200445
905,-0.02295,0.200445
906,-0.02294,0.200445
907,-0.02293,0.200445
908,-0.02292,0.200445
909,-0.02291,0.200445
910,-0.0229,0.200445
911,-0.02289,0.200445
912,-0.02288,0.200445
913,-0.02287,0.200445
914,-0.02286,0.200445
915,-0.02285,0.200445
916,-0.02284,0.200445
917,-0.02283,0.200445
918,-0.02282,0.200445
919,-0.02281,0.200445
920,-0.0228,0.200445
921,-0.02279,0.200445
922,-0.02278,0.200445
923,-0.02277,0.200445
924,-0.02276,0.200445
925,-0.02275,0.200445
926,-0.02274,0.200445
927,-0.02273,0.200445
928,-0.02272,0.200445
929,-0.02271,0.200445
930,-0.0227,0.200445
931,-0.02269,0.200445
932,-0.02268,0.200445
933,-0.02267,0.200445
934,-0.02266,0.200445
935,-0.02265,0.200445
936,-0.02264,0.200445
937,-0.02263,0.200445
938,-0.02262,0.200445
939,-0.02261,0.200445
940,-0.0226,0.200445
941,-0.02259,0.200445
942,-0.02258,0.200445
943,-0.02257,0.200445
944,-0.02256,0.200445
945,-0.02255,0.200445
946,-0.02254,0.200445
947,-0.02253,0.200445
948,-0.02252,0.200445
949,-0.02251,0.200445
950,-0.0225,0.200445
951,-0.02249,0.200445
952,-0.02248,0.200445
953,-0.02247,0.200445
954,-0.02246,0.200445
955,-0.02245,0.200445
956,-0.02244,0.200445
957,-0.02243,0.200445
958,-0.02242,0.200445
959,-0.02241,0.200445
960,-0.0224,0.200445
961,-0.02239,0.200445
962,-0.02238,0.200445
963,-0.02237,0.200445
964,-0.02236,0.200445
965,-0.02235,0.200445
966,-0.02234,0.200445
967,-0.02233,0.200445
968,-0.02232,0.200445
969,-0.02231,0.200445
970,-0.0223,0.200445
971,-0.02229,0.200445
972,-0.02228,0.200445
973,-0.02227,0.200445
974,-0.02226,0.200445
975,-0.02225,0.200445
976,-0.02224,0.200445
977,-0.02223,0.200445
978,-0.02222,0.200445
979,-0.02221,0.200445
980,-0.0222,0.200445
981,-0.02219,0.200445
982,-0.02218,0.200445
983,-0.02217,0.200445
984,-0.02216,0.200445
985,-0.02215,0.200445
986,-0.02214,0.200445
987,-0.02213,0.200445
988,-0.02212,0.200445
989,-0.02211,0.200445
990,-0.0221,0.200445
991,-0.02209,0.200445
992,-0.02208,0.200445
993,-0.02207,0.200445
994,-0.02206,0.200445
995,-0.02205,0.200445
996,-0.02204,0.200445
997,-0.02203,0.200445
998,-0.02202,0.200445
999,-0.02201,0.200445
1000,-0.022,0.200445
1001,-0.02199,0.200445
1002,-0.02198,0.200445
1003,-0.02197,0.200445
1004,-0.02196,0.200445
1005,-0.02195,0.200445
1006,-0.02194,0.200445
1007,-0.02193,0.200445
1008,-0.02192,0.200445
1009,-0.02191,0.200445
1010,-0.0219,0.200445
1011,-0.02189,0.200445
1012,-0.02188,0.200445
1013,-0.02187,0.200445
1014,-0.02186,0.200445
1015,-0.02185,0.200445
1016,-0.02184,0.200445
1017,-0.02183,0.200445
1018,-0.02182,0.200445
1019,-0.02181,0.200445
1020,-0.0218,0.200445
1021,-0.02179,0.200445
1022,-0.02178,0.200445
1023,-0.02177,0.200445
1024,-0.02176,0.200445
1025,-0.02175,0.200445
1026,-0.02174,0.200445
1027,-0.02173,0.200445
1028,-0.02172,0.200445
1029,-0.02171,0.200445
1030,-0.0217,0.200445
1031,-0.02169,0.200445
1032,-0.02168,0.200445
1033,-0.02167,0.200445
1034,-0.02166,0.200445
1035,-0.02165,0.200445
1036,-0.02164,0.200445
1037,-0.02163,0.200445
1038,-0.02162,0.200445
1039,-0.02161,0.200445
1040,-0.0216,0.200445
1041,-0.02159,0.200445
1042,-0.02158,0.200445
1043,-0.02157,0.200445
1044,-0.02156,0.200445
1045,-0.02155,0.200445
1046,-0.02154,0.200445
1047,-0.02153,0.200445
1048,-0.02152,0.200445
1049,-0.02151,0.200445
1050,-0.0215,0.200445
1051,-0.02149,0.200445
1052,-0.02148,0.200445
1053,-0.02147,0.200445
1054,-0.02146,0.200445
1055,-0.02145,0.200445
1056,-0.02144,0.200445
1057,-0.02143,0.200445
1058,-0.02142,0.200445
1059,-0.02141,0.200445
1060,-0.0214,0.200445
1061,-0.02139,0.200445
1062,-0.02138,0.200445
1063,-0.02137,0.200445
1064,-0.02136,0.200445
1065,-0.02135,0.200445
1066,-0.02134,0.200445
1067,-0.02133,0.200445
1068,-0.02132,0.200445
1069,-0.02131,0.200445
1070,-0.0213,0.200445
1071,-0.02129,0.200445
1072,-0.02128,0.200445
1073,-0.02127,0.200445
1074,-0.02126,0.200445
1075,-0.02125,0.200445
1076,-0.02124,0.200445
1077,-0.02123,0.200445
1078,-0.02122,0.200445
1079,-0.02121,0.200445
1080,-0.0212,0.200445
1081,-0.02119,0.200445
1082,-0.02118,0.200445
1083,-0.02117,0.200445
1084,-0.02116,0.200445
1085,-0.02115,0.200445
1086,-0.02114,0.200445
1087,-0.02113,0.200445
1088,-0.02112,0.200445
1089,-0.02111,0.200445
1090,-0.0211,0.200445
1091,-0.02109,0.200445
1092,-0.02108,0.200445
1093,-0.02107,0.200445
1094,-0.02106,0.200445
1095,-0.02105,0.200445
1096,-0.02104,0.200445
1097,-0.02103,0.200445
1098,-0.02102,0.200445
1099,-0.02101,0.200445
1100,-0.021,0.200445
1101,-0.02099,0.200445
1102,-0.02098,0.200445
1103,-0.02097,0.200445
1104,-0.02096,0.200445
1105,-0.02095,0.200445
1106,-0.02094,0.200445
1107,-0.02093,0.200445
1108,-0.02092,0.200445
1109,-0.02091,0.200445
1110,-0.0209,0.200445
1111,-0.02089,0.200445
1112,-0.02088,0.200445
1113,-0.02087,0.200445
1114,-0.02086,0.200445
1115,-0.02085,0.200445
1116,-0.02084,0.200445
1117,-0.02083,0.200445
1118,-0.02082,0.200445
1119,-0.02081,0.200445
1120,-0.0208,0.200445
1121,-0.02079,0.200445
1122,-0.02078,0.200445
1123,-0.02077,0.200445
1124,-0.02076,0.200445
1125,-0.02075,0.200445
1126,-0.02074,0.200445
1127,-0.02073,0.200445
1128,-0.02072,0.200445
1129,-0.02071,0.200445
1130,-0.0207,0.200445
1131,-0.02069,0.200445
1132,-0.02068,0.200445
1133,-0.02067,0.200445
1134,-0.02066,0.200445
1135,-0.02065,0.200445
1136,-0.02064,0.200445
1137,-0.02063,0.200445
1138,-0.02062,0.200445
1139,-0.02061,0.200445
1140,-0.0206,0.200445
1141,-0.02059,0.200445
1142,-0.02058,0.200445
1143,-0.02057,0.200445
1144,-0.02056,0.200445
1145,-0.02055,0.200445
1146,-0.02054,0.200445
1147,-0.02053,0.200445
1148,-0.02052,0.200445
1149,-0.02051,0.200445
1150,-0.0205,0.200445
1151,-0.02049,0.200445
1152,-0.02048,0.200445
1153,-0.02047,0.200445
1154,-0.02046,0.200445
1155,-0.02045,0.200445
1156,-0.02044,0.200445
1157,-0.02043,0.200445
1158,-0.02042,0.200445
1159,-0.02041,0.200445
1160,-0.0204,0.200445
1161,-0.02039,0.200445
1162,-0.02038,0.200445
1163,-0.02037,0.200445
1164,-0.02036,0.200445
1165,-0.02035,0.200445
1166,-0.02034,0.200445
1167,-0.02033,0.200445
1168,-0.02032,0.200445
1169,-0.02031,0.200445
1170,-0.0203,0.200445
1171,-0.02029,0.200445
1172,-0.02028,0.200445
1173,-0.02027,0.200445
1174,-0.02026,0.200445
1175,-0.02025,0.200445
1176,-0.02024,0.200445
1177,-0.02023,0.200445
1178,-0.02022,0.200445
1179,-0.02021,0.200445
1180,-0.0202,0.200445
1181,-0.02019,0.200445
1182,-0.02018,0.200445
1183,-0.02017,0.200445
1184,-0.02016,0.200445
1185,-0.02015,0.200445
1186,-0.02014,0.200445
1187,-0.02013,0.200445
1188,-0.02012,0.200445
1189,-0.02011,0.200445
1190,-0.0201,0.200445
1191,-0.02009,0.200445
1192,-0.02008,0.200445
1193,-0.02007,0.200445
1194,-0.02006,0.200445
1195,-0.02005,0.200445
1196,-0.02004,0.200445
1197,-0.02003,0.200445
1198,-0.02002,0.200445
1199,-0.02001,0.200445
1200,-0.02,0.200445
1201,-0.01999,0.200445
1202,-0.01998,0.200445
1203,-0.01997,0.200445
1204,-0.01996,0.200445
1205,-0.01995,0.200445
1206,-0.01994,0.200445
1207,-0.01993,0.200445
1208,-0.01992,0.200445
1209,-0.01991,0.200445
1210,-0.0199,0.200445
1211,-0.01989,0.200445
1212,-0.01988,0.200445
1213,-0.01987,0.200445
1214,-0.01986,0.200445
1215,-0.01985,0.200445
1216,-0.01984,0.200445
1217,-0.01983,0.200445
1218,-0.01982,0.200445
1219,-0.01981,0.200445
1220,-0.0198,0.200445
1221,-0.01979,0.200445
1222,-0.01978,0.200445
1223,-0.01977,0.200445
1224,-0.01976,0.200445
1225,-0.01975,0.200445
1226,-0.01974,0.200445
1227,-0.01973,0.200445
1228,-0.01972,0.200445
1229,-0.01971,0.200445
1230,-0.0197,0.200445
1231,-0.01969,0.200445
1232,-0.01968,0.200445
1233,-0.01967,0.200445
1234,-0.01966,0.200445
1235,-0.01965,0.200445
1236,-0.01964,0.200445
1237,-0.01963,0.200445
1238,-0.01962,0.200445
1239,-0.01961,0.200445
1240,-0.0196,0.200445
1241,-0.01959,0.200445
1242,-0.01958,0.200445
1243,-0.01957,0.200445
1244,-0.01956,0.200445
1245,-0.01955,0.200445
1246,-0.01954,0.200445
1247,-0.01953,0.200445
1248,-0.01952,0.200445
1249,-0.01951,0.200445
1250,-0.0195,0.200445
1251,-0.01949,0.200445
1252,-0.01948,0.200445
1253,-0.01947,0.200445
1254,-0.01946,0.200445
1255,-0.01945,0.200445
1256,-0.01944,0.200445
1257,-0.01943,0.200445
1258,-0.01942,0.200445
1259,-0.01941,0.200445
1260,-0.0194,0.200445
1261,-0.01939,0.200445
1262,-0.01938,0.200445
1263,-0.01937,0.200445
1264,-0.01936,0.200445
1265,-0.01935,0.200445
1266,-0.01934,0.200445
1267,-0.01933,0.200445
1268,-0.01932,0.200445
1269,-0.01931,0.200445
1270,-0.0193,0.200445
1271,-0.01929,0.200445
1272,-0.01928,0.200445
1273,-0.01927,0.200445
1274,-0.01926,0.200445
1275,-0.01925,0.200445
1276,-0.01924,0.200445
1277,-0.01923,0.200445
1278,-0.01922,0.200445
1279,-0.01921,0.200445
1280,-0.0192,0.200445
1281,-0.01919,0.200445
1282,-0.01918,0.200445
1283,-0.01917,0.200445
1284,-0.01916,0.200445
1285,-0.01915,0.200445
1286,-0.01914,0.200445
1287,-0.01913,0.200445
1288,-0.01912,0.200445
1289,-0.01911,0.200445
1290,-0.0191,0.200445
1291,-0.01909,0.200445
1292,-0.01908,0.200445
1293,-0.01907,0.200445
1294,-0.01906,0.200445
1295,-0.01905,0.200445
1296,-0.01904,0.200445
1297,-0.01903,0.200445
1298,-0.01902,0.200445
1299,-0.01901,0.200445
1300,-0.019,0.200445
1301,-0.01899,0.200445
1302,-0.01898,0.200445
1303,-0.01897,0.200445
1304,-0.01896,0.200445
1305,-0.01895,0.200445
1306,-0.01894,0.200445
1307,-0.01893,0.200445
1308,-0.01892,0.200445
1309,-0.01891,0.200445
1310,-0.0189,0.200445
1311,-0.01889,0.200445
1312,-0.01888,0.200445
1313,-0.01887,0.200445
1314,-0.01886,0.200445
1315,-0.01885,0.200445
1316,-0.01884,0.200445
1317,-0.01883,0.200445
1318,-0.01882,0.200445
1319,-0.01881,0.200445
1320,-0.0188,0.200445
1321,-0.01879,0.200445
1322,-0.01878,0.200445
1323,-0.01877,0.200445
1324,-0.01876,0.200445
1325,-0.01875,0.200445
1326,-0.01874,0.200445
1327,-0.01873,0.200445
1328,-0.01872,0.200445
1329,-0.01871,0.200445
1330,-0.0187,0.200445
1331,-0.01869,0.200445
1332,-0.01868,0.200445
1333,-0.01867,0.200445
1334,-0.01866,0.200445
1335,-0.01865,0.200445
1336,-0.01864,0.200445
1337,-0.01863,0.200445
1338,-0.01862,0.200445
1339,-0.01861,0.200445
1340,-0.0186,0.200445
1341,-0.01859,0.200445
1342,-0.01858,0.200445
1343,-0.01857,0.200445
1344,-0.01856,0.200445
1345,-0.01855,0.200445
1346,-0.01854,0.200445
1347,-0.01853,0.200445
1348,-0.01852,0.200445
1349,-0.01851,0.200445
1350,-0.0185,0.200445
1351,-0.01849,0.200445
1352,-0.01848,0.200445
1353,-0.01847,0.200445
1354,-0.01846,0.200445
1355,-0.01845,0.200445
1356,-0.01844,0.200445
1357,-0.01843,0.200445
1358,-0.01842,0.200445
1359,-0.01841,0.200445
1360,-0.0184,0.200445
1361,-0.01839,0.200445
1362,-0.01838,0.200445
1363,-0.01837,0.200445
1364,-0.01836,0.200445
1365,-0.01835,0.200445
1366,-0.01834,0.200445
1367,-0.01833,0.200445
1368,-0.01832,0.200445
1369,-0.01831,0.200445
1370,-0.0183,0.200445
1371,-0.01829,0.200445
1372,-0.01828,0.200445
1373,-0.01827,0.200445
1374,-0.01826,0.200445
1375,-0.01825,0.200445
1376,-0.01824,0.200445
1377,-0.01823,0.200445
1378,-0.01822,0.200445
1379,-0.01821,0.200445
1380,-0.0182,0.200445
1381,-0.01819,0.200445
1382,-0.01818,0.200445
1383,-0.01817,0.200445
1384,-0.01816,0.200445
1385,-0.01815,0.200445
1386,-0.01814,0.200445
1387,-0.01813,0.200445
1388,-0.01812,0.200445
1389,-0.01811,0.200445
1390,-0.0181,0.200445
1391,-0.01809,0.200445
1392,-0.01808,0.200445
1393,-0.01807,0.200445
1394,-0.01806,0.200445
1395,-0.01805,0.200445
1396,-0.01804,0.200445
1397,-0.01803,0.200445
1398,-0.01802,0.200445
1399,-0.01801,0.200445
1400,-0.018,0.200445
1401,-0.01799,0.200445
1402,-0.01798,0.200445
1403,-0.01797,0.200445
1404,-0.01796,0.200445
1405,-0.01795,0.200445
1406,-0.01794,0.200445
1407,-0.01793,0.200445
1408,-0.01792,0.200445
1409,-0.01791,0.200445
1410,-0.0179,0.200445
1411,-0.01789,0.200445
1412,-0.01788,0.200445
1413,-0.01787,0.200445
1414,-0.01786,0.200445
1415,-0.01785,0.200445
1416,-0.01784,0.200445
1417,-0.01783,0.200445
1418,-0.01782,0.200445
1419,-0.01781,0.200445
1420,-0.0178,0.200445
1421,-0.01779,0.200445
1422,-0.01778,0.200445
1423,-0.01777,0.200445
1424,-0.01776,0.200445
1425,-0.01775,0.200445
1426,-0.01774,0.200445
1427,-0.01773,0.200445
1428,-0.01772,0.200445
1429,-0.01771,0.200445
1430,-0.0177,0.200445
1431,-0.01769,0.200445
1432,-0.01768,0.200445
1433,-0.01767,0.200445
1434,-0.01766,0.200445
1435,-0.01765,0.200445
1436,-0.01764,0.200445
1437,-0.01763,0.200445
1438,-0.01762,0.200445
1439,-0.01761,0.200445
1440,-0.0176,0.200445
1441,-0.01759,0.200445
1442,-0.01758,0.200445
1443,-0.01757,0.200445
1444,-0.01756,0.200445
1445,-0.01755,0.200445
1446,-0.01754,0.200445
1447,-0.01753,0.200445
1448,-0.01752,0.200445
1449,-0.01751,0.200445
1450,-0.0175,0.200445
1451,-0.01749,0.200445
1452,-0.01748,0.200445
1453,-0.01747,0.200445
1454,-0.01746,0.200445
1455,-0.01745,0.200445
1456,-0.01744,0.200445
1457,-0.01743,0.200445
1458,-0.01742,0.200445
1459,-0.01741,0.200445
1460,-0.0174,0.200445
1461,-0.01739,0.200445
1462,-0.01738,0.200445
1463,-0.01737,0.200445
1464,-0.01736,0.200445
1465,-0.01735,0.200445
1466,-0.01734,0.200445
1467,-0.01733,0.200445
1468,-0.01732,0.200445
1469,-0.01731,0.200445
1470,-0.0173,0.200445
1471,-0.01729,0.200445
1472,-0.01728,0.200445
1473,-0.01727,0.200445
1474,-0.01726,0.200445
1475,-0.01725,0.200445
1476,-0.01724,0.200445
1477,-0.01723,0.200445
1478,-0.01722,0.200445
1479,-0.01721,0.200445
1480,-0.0172,0.200445
1481,-0.01719,0.200445
1482,-0.01718,0.200445
1483,-0.01717,0.200445
1484,-0.01716,0.200445
1485,-0.01715,0.200445
1486,-0.01714,0.200445
1487,-0.01713,0.200445
1488,-0.01712,0.200445
1489,-0.01711,0.200445
1490,-0.0171,0.200445
1491,-0.01709,0.200445
1492,-0.01708,0.200445
1493,-0.01707,0.200445
1494,-0.01706,0.200445
1495,-0.01705,0.200445
1496,-0.01704,0.200445
1497,-0.01703,0.200445
1498,-0.01702,0.200445
1499,-0.01701,0.200445
1500,-0.017,0.200445
1501,-0.01699,0.200445
1502,-0.01698,0.200445
1503,-0.01697,0.200445
1504,-0.01696,0.200445
1505,-0.01695,0.200445
1506,-0.01694,0.200445
1507,-0.01693,0.200445
1508,-0.01692,0.200445
1509,-0.01691,0.200445
1510,-0.0169,0.200445
1511,-0.01689,0.200445
1512,-0.01688,0.200445
1513,-0.01687,0.200445
1514,-0.01686,0.200445
1515,-0.01685,0.200445
1516,-0.01684,0.200445
1517,-0.01683,0.200445
1518,-0.01682,0.200445
1519,-0.01681,0.200445
1520,-0.0168,0.200445
1521,-0.01679,0.200445
1522,-0.01678,0.200445
1523,-0.01677,0.200445
1524,-0.01676,0.200445
1525,-0.01675,0.200445
1526,-0.01674,0.200445
1527,-0.01673,0.200445
1528,-0.01672,0.200445
1529,-0.01671,0.200445
1530,-0.0167,0.200445
1531,-0.01669,0.200445
1532,-0.01668,0.200445
1533,-0.01667,0.200445
1534,-0.01666,0.200445
1535,-0.01665,0.200445
1536,-0.01664,0.200445
1537,-0.01663,0.200445
1538,-0.01662,0.200445
1539,-0.01661,0.200445
1540,-0.0166,0.200445
1541,-0.01659,0.183741
1542,-0.01658,0.217148
1543,-0.01657,0.217148
1544,-0.01656,0.250556
1545,-0.01655,1.75389
1546,-0.01654,4.69375
1547,-0.01653,4.52671
1548,-0.01652,4.62693
1549,-0.01651,4.72715
1550,-0.0165,4.84408
1551,-0.01649,4.97771
1552,-0.01648,5.12804
1553,-0.01647,5.34519
1554,-0.01646,5.57904
1555,-0.01645,5.86301
1556,-0.01644,6.31401
1557,-0.01643,7.53338
1558,-0.01642,15.0333
1559,-0.01641,14.3819
1560,-0.0164,14.432
1561,-0.01639,14.3819
1562,-0.01638,14.3485
1563,-0.01637,14.3151
1564,-0.01636,14.2984
1565,-0.01635,14.2984
1566,-0.01634,14.2483
1567,-0.01633,14.2316
1568,-0.01632,14.2316
1569,-0.01631,14.2316
1570,-0.0163,14.2149
1571,-0.01629,14.2149
1572,-0.01628,14.2149
1573,-0.01627,14.2149
1574,-0.01626,14.2149
1575,-0.01625,14.2149
1576,-0.01624,14.2149
1577,-0.01623,14.2149
1578,-0.01622,14.2149
1579,-0.01621,14.2149
1580,-0.0162,14.2149
1581,-0.01619,14.2149
1582,-0.01618,14.2149
1583,-0.01617,14.2149
1584,-0.01616,14.2149
1585,-0.01615,14.2149
1586,-0.01614,14.2149
1587,-0.01613,14.2149
1588,-0.01612,14.2149
1589,-0.01611,14.2149
1590,-0.0161,14.2149
1591,-0.01609,14.2149
1592,-0.01608,14.2149
1593,-0.01607,14.2149
1594,-0.01606,14.2149
1595,-0.01605,14.2149
1596,-0.01604,14.2149
1597,-0.01603,14.2149
1598,-0.01602,14.2149
1599,-0.01601,14.2149
1600,-0.016,14.2149
1601,-0.01599,14.2149
1602,-0.01598,14.2149
1603,-0.01597,14.2149
1604,-0.01596,14.2149
1605,-0.01595,14.2149
1606,-0.01594,14.2149
1607,-0.01593,14.2149
1608,-0.01592,14.2149
1609,-0.01591,14.2149
1610,-0.0159,14.2149
1611,-0.01589,14.2149
1612,-0.01588,14.2149
1613,-0.01587,14.2149
1614,-0.01586,14.2149
1615,-0.01585,14.2149
1616,-0.01584,14.2149
1617,-0.01583,14.2149
1618,-0.01582,14.2149
1619,-0.01581,14.2149
1620,-0.0158,14.2149
1621,-0.01579,14.2149
1622,-0.01578,14.2149
1623,-0.01577,14.2149
1624,-0.01576,14.2149
1625,-0.01575,14.2149
1626,-0.01574,14.2149
1627,-0.01573,14.2149
1628,-0.01572,14.2149
1629,-0.01571,14.2149
1630,-0.0157,14.2149
1631,-0.01569,14.2149
1632,-0.01568,14.2149
1633,-0.01567,14.2149
1634,-0.01566,14.2149
1635,-0.01565,14.2149
1636,-0.01564,14.2149
1637,-0.01563,14.2149
1638,-0.01562,14.2149
1639,-0.01561,14.2149
1640,-0.0156,14.2149
1641,-0.01559,14.2149
1642,-0.01558,14.2149
1643,-0.01557,14.2149
1644,-0.01556,14.2149
1645,-0.01555,14.2149
1646,-0.01554,14.2149
1647,-0.01553,14.2149
1648,-0.01552,14.2149
1649,-0.01551,14.2149
1650,-0.0155,14.2149
1651,-0.01549,14.2149
1652,-0.01548,14.2149
1653,-0.01547,14.2149
1654,-0.01546,14.2149
1655,-0.01545,14.2149
1656,-0.01544,14.2149
1657,-0.01543,14.2149
1658,-0.01542,14.2149
1659,-0.01541,14.2149
1660,-0.0154,14.2149
1661,-0.01539,14.2149
1662,-0.01538,14.2149
1663,-0.01537,14.2149
1664,-0.01536,14.2149
1665,-0.01535,14.2149
1666,-0.01534,14.2149
1667,-0.01533,14.2149
1668,-0.01532,14.2149
1669,-0.01531,14.2149
1670,-0.0153,14.2149
1671,-0.01529,14.2149
1672,-0.01528,14.2149
1673,-0.01527,14.2149
1674,-0.01526,9.35408
1675,-0.01525,-0.818482
1676,-0.01524,-0.100222
1677,-0.01523,-0.0668149
1678,-0.01522,-0.0334074
1679,-0.01521,0.0334074
1680,-0.0152,0.0668149
1681,-0.01519,0.116926
1682,-0.01518,0.116926
1683,-0.01517,0.167037
1684,-0.01516,0.167037
1685,-0.01515,0.183741
1686,-0.01514,0.183741
1687,-0.01513,0.183741
1688,-0.01512,0.183741
1689,-0.01511,0.217148
1690,-0.0151,0.217148
1691,-0.01509,0.217148
1692,-0.01508,0.217148
1693,-0.01507,0.217148
1694,-0.01506,0.217148
1695,-0.01505,0.183741
1696,-0.01504,0.217148
1697,-0.01503,0.200445
1698,-0.01502,0.200445
1699,-0.01501,0.200445
1700,-0.015,0.200445
1701,-0.01499,0.200445
1702,-0.01498,0.200445
1703,-0.01497,0.200445
1704,-0.01496,0.200445
1705,-0.01495,0.200445
1706,-0.01494,0.200445
1707,-0.01493,0.200445
1708,-0.01492,0.200445
1709,-0.01491,0.200445
1710,-0.0149,0.200445
1711,-0.01489,0.200445
1712,-0.01488,0.200445
1713,-0.01487,0.200445
1714,-0.01486,0.200445
1715,-0.01485,0.200445
1716,-0.01484,0.200445
1717,-0.01483,0.200445
1718,-0.01482,0.200445
1719,-0.01481,0.200445
1720,-0.0148,0.200445
1721,-0.01479,0.200445
1722,-0.01478,0.200445
1723,-0.01477,0.200445
1724,-0.01476,0.200445
1725,-0.01475,0.200445
1726,-0.01474,0.200445
1727,-0.01473,0.200445
1728,-0.01472,0.200445
1729,-0.01471,0.200445
1730,-0.0147,0.200445
1731,-0.01469,0.200445
1732,-0.01468,0.200445
1733,-0.01467,0.200445
1734,-0.01466,0.200445
1735,-0.01465,0.200445
1736,-0.01464,0.200445
1737,-0.01463,0.200445
1738,-0.01462,0.200445
1739,-0.01461,0.200445
1740,-0.0146,0.200445
1741,-0.01459,0.200445
1742,-0.01458,0.200445
1743,-0.01457,0.200445
1744,-0.01456,0.200445
1745,-0.01455,0.200445
1746,-0.01454,0.200445
1747,-0.01453,0.200445
1748,-0.01452,0.200445
1749,-0.01451,0.200445
1750,-0.0145,0.200445
1751,-0.01449,0.200445
1752,-0.01448,0.200445
1753,-0.01447,0.200445
1754,-0.01446,0.200445
1755,-0.01445,0.200445
1756,-0.01444,0.200445
1757,-0.01443,0.200445
1758,-0.01442,0.200445
1759,-0.01441,0.200445
1760,-0.0144,0.200445
1761,-0.01439,0.200445
1762,-0.01438,0.200445
1763,-0.01437,0.200445
1764,-0.01436,0.200445
1765,-0.01435,0.200445
1766,-0.01434,0.200445
1767,-0.01433,0.200445
1768,-0.01432,0.200445
1769,-0.01431,0.200445
1770,-0.0143,0.200445
1771,-0.01429,0.200445
1772,-0.01428,0.200445
1773,-0.01427,0.200445
1774,-0.01426,0.200445
1775,-0.01425,0.200445
1776,-0.01424,0.200445
1777,-0.01423,0.200445
1778,-0.01422,0.200445
1779,-0.01421,0.200445
1780,-0.0142,0.200445
1781,-0.01419,0.200445
1782,-0.01418,0.200445
1783,-0.01417,0.200445
1784,-0.01416,0.200445
1785,-0.01415,0.200445
1786,-0.01414,0.200445
1787,-0.01413,0.200445
1788,-0.01412,0.200445
1789,-0.01411,0.200445
1790,-0.0141,0.200445
1791,-0.01409,0.200445
1792,-0.01408,0.200445
1793,-0.01407,0.200445
1794,-0.01406,0.200445
1795,-0.01405,0.200445
1796,-0.01404,0.200445
1797,-0.01403,0.200445
1798,-0.01402,0.200445
1799,-0.01401,0.200445
1800,-0.014,0.200445
1801,-0.01399,0.200445
1802,-0.01398,0.200445
1803,-0.01397,0.200445
1804,-0.01396,0.200445
1805,-0.01395,0.200445
1806,-0.01394,0.200445
1807,-0.01393,0.200445
1808,-0.01392,0.200445
1809,-0.01391,0.200445
1810,-0.0139,0.200445
1811,-0.01389,0.200445
1812,-0.01388,0.200445
1813,-0.01387,0.200445
1814,-0.01386,0.200445
1815,-0.01385,0.200445
1816,-0.01384,0.200445
1817,-0.01383,0.200445
1818,-0.01382,0.200445
1819,-0.01381,0.200445
1820,-0.0138,0.200445
1821,-0.01379,0.200445
1822,-0.01378,0.200445
1823,-0.01377,0.200445
1824,-0.01376,0.200445
1825,-0.01375,0.200445
1826,-0.01374,0.200445
1827,-0.01373,0.200445
1828,-0.01372,0.200445
1829,-0.01371,0.200445
1830,-0.0137,0.200445
1831,-0.01369,0.200445
1832,-0.01368,0.200445
1833,-0.01367,0.200445
1834,-0.01366,0.200445
1835,-0.01365,0.200445
1836,-0.01364,0.200445
1837,-0.01363,0.200445
1838,-0.01362,0.200445
1839,-0.01361,0.200445
1840,-0.0136,0.200445
1841,-0.01359,0.200445
1842,-0.01358,0.200445
1843,-0.01357,0.200445
1844,-0.01356,0.200445
1845,-0.01355,0.200445
1846,-0.01354,0.200445
1847,-0.01353,0.200445
1848,-0.01352,0.200445
1849,-0.01351,0.200445
1850,-0.0135,0.200445
1851,-0.01349,0.200445
1852,-0.01348,0.200445
1853,-0.01347,0.200445
1854,-0.01346,0.200445
1855,-0.01345,0.200445
1856,-0.01344,0.200445
1857,-0.01343,0.200445
1858,-0.01342,0.200445
1859,-0.01341,0.200445
1860,-0.0134,0.200445
1861,-0.01339,0.200445
1862,-0.01338,0.200445
1863,-0.01337,0.200445
1864,-0.01336,0.200445
1865,-0.01335,0.200445
1866,-0.01334,0.200445
1867,-0.01333,0.200445
1868,-0.01332,0.200445
1869,-0.01331,0.200445
1870,-0.0133,0.200445
1871,-0.01329,0.200445
1872,-0.01328,0.200445
1873,-0.01327,0.200445
1874,-0.01326,0.200445
1875,-0.01325,0.200445
1876,-0.01324,0.200445
1877,-0.01323,0.200445
1878,-0.01322,0.200445
1879,-0.01321,0.200445
1880,-0.0132,0.200445
1881,-0.01319,0.200445
1882,-0.01318,0.200445
1883,-0.01317,0.200445
1884,-0.01316,0.200445
1885,-0.01315,0.200445
1886,-0.01314,0.200445
1887,-0.01313,0.200445
1888,-0.01312,0.200445
1889,-0.01311,0.200445
1890,-0.0131,0.200445
1891,-0.01309,0.200445
1892,-0.01308,0.200445
1893,-0.01307,0.200445
1894,-0.01306,0.200445
1895,-0.01305,0.200445
1896,-0.01304,0.200445
1897,-0.01303,0.200445
1898,-0.01302,0.200445
1899,-0.01301,0.200445
1900,-0.013,0.200445
1901,-0.01299,0.200445
1902,-0.01298,0.200445
1903,-0.01297,0.200445
1904,-0.01296,0.200445
1905,-0.01295,0.200445
1906,-0.01294,0.200445
1907,-0.01293,0.200445
1908,-0.01292,0.200445
1909,-0.01291,0.200445
1910,-0.0129,0.200445
1911,-0.01289,0.200445
1912,-0.01288,0.200445
1913,-0.01287,0.200445
1914,-0.01286,0.200445
1915,-0.01285,0.200445
1916,-0.01284,0.200445
1917,-0.01283,0.200445
1918,-0.01282,0.200445
1919,-0.01281,0.200445
1920,-0.0128,0.200445
1921,-0.01279,0.200445
1922,-0.01278,0.200445
1923,-0.01277,0.200445
1924,-0.01276,0.200445
1925,-0.01275,0.200445
1926,-0.01274,0.200445
1927,-0.01273,0.200445
1928,-0.01272,0.200445
1929,-0.01271,0.200445
1930,-0.0127,0.200445
1931,-0.01269,0.200445
1932,-0.01268,0.200445
1933,-0.01267,0.200445
1934,-0.01266,0.200445
1935,-0.01265,0.200445
1936,-0.01264,0.200445
1937,-0.01263,0.200445
1938,-0.01262,0.200445
1939,-0.01261,0.200445
1940,-0.0126,0.200445
1941,-0.01259,0.200445
1942,-0.01258,0.200445
1943,-0.01257,0.200445
1944,-0.01256,0.200445
1945,-0.01255,0.200445
1946,-0.01254,0.200445
1947,-0.01253,0.200445
1948,-0.01252,0.200445
1949,-0.01251,0.200445
1950,-0.0125,0.200445
1951,-0.01249,0.200445
1952,-0.01248,0.200445
1953,-0.01247,0.200445
1954,-0.01246,0.200445
1955,-0.01245,0.200445
1956,-0.01244,0.200445
1957,-0.01243,0.200445
1958,-0.01242,0.200445
1959,-0.01241,0.200445
1960,-0.0124,0.200445
1961,-0.01239,0.200445
1962,-0.01238,0.200445
1963,-0.01237,0.200445
1964,-0.01236,0.200445
1965,-0.01235,0.200445
1966,-0.01234,0.200445
1967,-0.01233,0.200445
1968,-0.01232,0.200445
1969,-0.01231,0.200445
1970,-0.0123,0.200445
1971,-0.01229,0.200445
1972,-0.01228,0.200445
1973,-0.01227,0.200445
1974,-0.01226,0.200445
1975,-0.01225,0.200445
1976,-0.01224,0.200445
1977,-0.01223,0.200445
1978,-0.01222,0.200445
1979,-0.01221,0.200445
1980,-0.0122,0.200445
1981,-0.01219,0.200445
1982,-0.01218,0.200445
1983,-0.01217,0.200445
1984,-0.01216,0.200445
1985,-0.01215,0.200445
1986,-0.01214,0.200445
1987,-0.01213,0.200445
1988,-0.01212,0.200445
1989,-0.01211,0.200445
1990,-0.0121,0.200445
1991,-0.01209,0.200445
1992,-0.01208,0.200445
1993,-0.01207,0.200445
1994,-0.01206,0.200445
1995,-0.01205,0.200445
1996,-0.01204,0.200445
1997,-0.01203,0.200445
1998,-0.01202,0.200445
1999,-0.01201,0.200445
2000,-0.012,0.200445
2001,-0.01199,0.200445
2002,-0.01198,0.200445
2003,-0.01197,0.200445
2004,-0.01196,0.200445
2005,-0.01195,0.200445
2006,-0.01194,0.200445
2007,-0.01193,0.200445
2008,-0.01192,0.200445
2009,-0.01191,0.200445
2010,-0.0119,0.200445
2011,-0.01189,0.200445
2012,-0.01188,0.200445
2013,-0.01187,0.200445
2014,-0.01186,0.200445
2015,-0.01185,0.200445
2016,-0.01184,0.200445
2017,-0.01183,0.200445
2018,-0.01182,0.200445
2019,-0.01181,0.200445
2020,-0.0118,0.200445
2021,-0.01179,0.200445
2022,-0.01178,0.200445
2023,-0.01177,0.200445
2024,-0.01176,0.200445
2025,-0.01175,0.200445
2026,-0.01174,0.200445
2027,-0.01173,0.200445
2028,-0.01172,0.200445
2029,-0.01171,0.200445
2030,-0.0117,0.200445
2031,-0.01169,0.200445
2032,-0.01168,0.200445
2033,-0.01167,0.200445
2034,-0.01166,0.200445
2035,-0.01165,0.200445
2036,-0.01164,0.200445
2037,-0.01163,0.200445
2038,-0.01162,0.200445
2039,-0.01161,0.200445
2040,-0.0116,0.200445
2041,-0.01159,0.200445
2042,-0.01158,0.200445
2043,-0.01157,0.200445
2044,-0.01156,0.200445
2045,-0.01155,0.200445
2046,-0.01154,0.200445
2047,-0.01153,0.200445
2048,-0.01152,0.200445
2049,-0.01151,0.200445
2050,-0.0115,0.200445
2051,-0.01149,0.200445
2052,-0.01148,0.200445
2053,-0.01147,0.200445
2054,-0.01146,0.200445
2055,-0.01145,0.200445
2056,-0.01144,0.200445
2057,-0.01143,0.200445
2058,-0.01142,0.200445
2059,-0.01141,0.200445
2060,-0.0114,0.200445
2061,-0.01139,0.200445
2062,-0.01138,0.200445
2063,-0.01137,0.200445
2064,-0.01136,0.200445
2065,-0.01135,0.200445
2066,-0.01134,0.200445
2067,-0.01133,0.200445
2068,-0.01132,0.200445
2069,-0.01131,0.200445
2070,-0.0113,0.200445
2071,-0.01129,0.200445
2072,-0.01128,0.200445
2073,-0.01127,0.200445
2074,-0.01126,0.200445
2075,-0.01125,0.200445
2076,-0.01124,0.200445
2077,-0.01123,0.200445
2078,-0.01122,0.200445
2079,-0.01121,0.200445
2080,-0.0112,0.200445
2081,-0.01119,0.200445
2082,-0.01118,0.200445
2083,-0.01117,0.200445
2084,-0.01116,0.200445
2085,-0.01115,0.200445
2086,-0.01114,0.200445
2087,-0.01113,0.200445
2088,-0.01112,0.200445
2089,-0.01111,0.200445
2090,-0.0111,0.200445
2091,-0.01109,0.200445
2092,-0.01108,0.200445
2093,-0.01107,0.200445
2094,-0.01106,0.200445
2095,-0.01105,0.200445
2096,-0.01104,0.200445
2097,-0.01103,0.200445
2098,-0.01102,0.200445
2099,-0.01101,0.200445
2100,-0.011,0.200445
2101,-0.01099,0.200445
2102,-0.01098,0.200445
2103,-0.01097,0.200445
2104,-0.01096,0.200445
2105,-0.01095,0.200445
2106,-0.01094,0.200445
2107,-0.01093,0.200445
2108,-0.01092,0.200445
2109,-0.01091,0.200445
2110,-0.0109,0.200445
2111,-0.01089,0.200445
2112,-0.01088,0.200445
2113,-0.01087,0.200445
2114,-0.01086,0.200445
2115,-0.01085,0.200445
2116,-0.01084,0.200445
2117,-0.01083,0.200445
2118,-0.01082,0.200445
2119,-0.01081,0.200445
2120,-0.0108,0.200445
2121,-0.01079,0.200445
2122,-0.01078,0.200445
2123,-0.01077,0.200445
2124,-0.01076,0.200445
2125,-0.01075,0.200445
2126,-0.01074,0.200445
2127,-0.01073,0.200445
2128,-0.01072,0.200445
2129,-0.01071,0.200445
2130,-0.0107,0.200445
2131,-0.01069,0.200445
2132,-0.01068,0.200445
2133,-0.01067,0.200445
2134,-0.01066,0.200445
2135,-0.01065,0.200445
2136,-0.01064,0.200445
2137,-0.01063,0.200445
2138,-0.01062,0.200445
2139,-0.01061,0.200445
2140,-0.0106,0.200445
2141,-0.01059,0.200445
2142,-0.01058,0.200445
2143,-0.01057,0.200445
2144,-0.01056,0.200445
2145,-0.01055,0.200445
2146,-0.01054,0.200445
2147,-0.01053,0.200445
2148,-0.01052,0.200445
2149,-0.01051,0.200445
2150,-0.0105,0.200445
2151,-0.01049,0.200445
2152,-0.01048,0.200445
2153,-0.01047,0.200445
2154,-0.01046,0.200445
2155,-0.01045,0.200445
2156,-0.01044,0.200445
2157,-0.01043,0.200445
2158,-0.01042,0.200445
2159,-0.01041,0.200445
2160,-0.0104,0.200445
2161,-0.01039,0.200445
2162,-0.01038,0.200445
2163,-0.01037,0.200445
2164,-0.01036,0.200445
2165,-0.01035,0.200445
2166,-0.01034,0.200445
2167,-0.01033,0.200445
2168,-0.01032,0.200445
2169,-0.01031,0.200445
2170,-0.0103,0.200445
2171,-0.01029,0.200445
2172,-0.01028,0.200445
2173,-0.01027,0.200445
2174,-0.01026,0.200445
2175,-0.01025,0.200445
2176,-0.01024,0.200445
2177,-0.01023,0.200445
2178,-0.01022,0.200445
2179,-0.01021,0.200445
2180,-0.0102,0.200445
2181,-0.01019,0.200445
2182,-0.01018,0.200445
2183,-0.01017,0.200445
2184,-0.01016,0.200445
2185,-0.01015,0.200445
2186,-0.01014,0.200445
2187,-0.01013,0.200445
2188,-0.01012,0.200445
2189,-0.01011,0.200445
2190,-0.0101,0.200445
2191,-0.01009,0.200445
2192,-0.01008,0.200445
2193,-0.01007,0.200445
2194,-0.01006,0.200445
2195,-0.01005,0.200445
2196,-0.01004,0.200445
2197,-0.01003,0.200445
2198,-0.01002,0.200445
2199,-0.01001,0.200445
2200,-0.01,0.200445
2201,-0.00999,0.200445
2202,-0.00998,0.200445
2203,-0.00997,0.200445
2204,-0.00996,0.200445
2205,-0.00995,0.200445
2206,-0.00994,0.200445
2207,-0.00993,0.200445
2208,-0.00992,0.200445
2209,-0.00991,0.200445
2210,-0.0099,0.200445
2211,-0.00989,0.200445
2212,-0.00988,0.200445
2213,-0.00987,0.200445
2214,-0.00986,0.200445
2215,-0.00985,0.200445
2216,-0.00984,0.200445
2217,-0.00983,0.200445
2218,-0.00982,0.200445
2219,-0.00981,0.200445
2220,-0.0098,0.200445
2221,-0.00979,0.200445
2222,-0.00978,0.200445
2223,-0.00977,0.200445
2224,-0.00976,0.200445
2225,-0.00975,0.200445
2226,-0.00974,0.200445
2227,-0.00973,0.200445
2228,-0.00972,0.200445
2229,-0.00971,0.200445
2230,-0.0097,0.200445
2231,-0.00969,0.200445
2232,-0.00968,0.200445
2233,-0.00967,0.200445
2234,-0.00966,0.200445
2235,-0.00965,0.200445
2236,-0.00964,0.200445
2237,-0.00963,0.200445
2238,-0.00962,0.200445
2239,-0.00961,0.200445
2240,-0.0096,0.200445
2241,-0.00959,0.200445
2242,-0.00958,0.200445
2243,-0.00957,0.200445
2244,-0.00956,0.200445
2245,-0.00955,0.200445
2246,-0.00954,0.200445
2247,-0.00953,0.200445
2248,-0.00952,0.200445
2249,-0.00951,0.200445
2250,-0.0095,0.200445
2251,-0.00949,0.200445
2252,-0.00948,0.200445
2253,-0.00947,0.200445
2254,-0.00946,0.200445
2255,-0.00945,0.200445
2256,-0.00944,0.200445
2257,-0.00943,0.200445
2258,-0.00942,0.200445
2259,-0.00941,0.200445
2260,-0.0094,0.200445
2261,-0.00939,0.200445
2262,-0.00938,0.200445
2263,-0.00937,0.200445
2264,-0.00936,0.200445
2265,-0.00935,0.200445
2266,-0.00934,0.200445
2267,-0.00933,0.200445
2268,-0.00932,0.200445
2269,-0.00931,0.200445
2270,-0.0093,0.200445
2271,-0.00929,0.200445
2272,-0.00928,0.200445
2273,-0.00927,0.200445
2274,-0.00926,0.200445
2275,-0.00925,0.200445
2276,-0.00924,0.200445
2277,-0.00923,0.200445
2278,-0.00922,0.200445
2279,-0.00921,0.200445
2280,-0.0092,0.200445
2281,-0.00919,0.200445
2282,-0.00918,0.200445
2283,-0.00917,0.200445
2284,-0.00916,0.200445
2285,-0.00915,0.200445
2286,-0.00914,0.200445
2287,-0.00913,0.200445
2288,-0.00912,0.200445
2289,-0.00911,0.200445
2290,-0.0091,0.200445
2291,-0.00909,0.200445
2292,-0.00908,0.200445
2293,-0.00907,0.200445
2294,-0.00906,0.200445
2295,-0.00905,0.200445
2296,-0.00904,0.200445
2297,-0.00903,0.200445
2298,-0.00902,0.200445
2299,-0.00901,0.200445
2300,-0.009,0.200445
2301,-0.00899,0.200445
2302,-0.00898,0.200445
2303,-0.00897,0.200445
2304,-0.00896,0.200445
2305,-0.00895,0.200445
2306,-0.00894,0.200445
2307,-0.00893,0.200445
2308,-0.00892,0.200445
2309,-0.00891,0.200445
2310,-0.0089,0.200445
2311,-0.00889,0.200445
2312,-0.00888,0.200445
2313,-0.00887,0.200445
2314,-0.00886,0.200445
2315,-0.00885,0.200445
2316,-0.00884,0.200445
2317,-0.00883,0.200445
2318,-0.00882,0.200445
2319,-0.00881,0.200445
2320,-0.0088,0.200445
2321,-0.00879,0.200445
2322,-0.00878,0.200445
2323,-0.00877,0.200445
2324,-0.00876,0.200445
2325,-0.00875,0.200445
2326,-0.00874,0.200445
2327,-0.00873,0.200445
2328,-0.00872,0.200445
2329,-0.00871,0.200445
2330,-0.0087,0.200445
2331,-0.00869,0.200445
2332,-0.00868,0.200445
2333,-0.00867,0.200445
2334,-0.00866,0.200445
2335,-0.00865,0.200445
2336,-0.00864,0.200445
2337,-0.00863,0.200445
2338,-0.00862,0.200445
2339,-0.00861,0.200445
2340,-0.0086,0.200445
2341,-0.00859,0.200445
2342,-0.00858,0.200445
2343,-0.00857,0.200445
2344,-0.00856,0.200445
2345,-0.00855,0.200445
2346,-0.00854,0.200445
2347,-0.00853,0.200445
2348,-0.00852,0.200445
2349,-0.00851,0.200445
2350,-0.0085,0.200445
2351,-0.00849,0.200445
2352,-0.00848,0.200445
2353,-0.00847,0.200445
2354,-0.00846,0.200445
2355,-0.00845,0.200445
2356,-0.00844,0.200445
2357,-0.00843,0.200445
2358,-0.00842,0.200445
2359,-0.00841,0.200445
2360,-0.0084,0.200445
2361,-0.00839,0.200445
2362,-0.00838,0.200445
2363,-0.00837,0.200445
2364,-0.00836,0.200445
2365,-0.00835,0.200445
2366,-0.00834,0.200445
2367,-0.00833,0.200445
2368,-0.00832,0.200445
2369,-0.00831,0.200445
2370,-0.0083,0.200445
2371,-0.00829,0.200445
2372,-0.00828,0.200445
2373,-0.00827,0.200445
2374,-0.00826,0.200445
2375,-0.00825,0.200445
2376,-0.00824,0.200445
2377,-0.00823,0.200445
2378,-0.00822,0.200445
2379,-0.00821,0.200445
2380,-0.0082,0.200445
2381,-0.00819,0.200445
2382,-0.00818,0.200445
2383,-0.00817,0.200445
2384,-0.00816,0.200445
2385,-0.00815,0.200445
2386,-0.00814,0.200445
2387,-0.00813,0.200445
2388,-0.00812,0.200445
2389,-0.00811,0.200445
2390,-0.0081,0.200445
2391,-0.00809,0.200445
2392,-0.00808,0.200445
2393,-0.00807,0.200445
2394,-0.00806,0.200445
2395,-0.00805,0.200445
2396,-0.00804,0.200445
2397,-0.00803,0.200445
2398,-0.00802,0.200445
2399,-0.00801,0.200445
2400,-0.008,0.200445
2401,-0.00799,0.200445
2402,-0.00798,0.200445
2403,-0.00797,0.200445
2404,-0.00796,0.200445
2405,-0.00795,0.200445
2406,-0.00794,0.200445
2407,-0.00793,0.200445
2408,-0.00792,0.200445
2409,-0.00791,0.200445
2410,-0.0079,0.200445
2411,-0.00789,0.200445
2412,-0.00788,0.200445
2413,-0.00787,0.200445
2414,-0.00786,0.200445
2415,-0.00785,0.200445
2416,-0.00784,0.200445
2417,-0.00783,0.200445
2418,-0.00782,0.200445
2419,-0.00781,0.200445
2420,-0.0078,0.200445
2421,-0.00779,0.200445
2422,-0.00778,0.200445
2423,-0.00777,0.200445
2424,-0.00776,0.200445
2425,-0.00775,0.200445
2426,-0.00774,0.200445
2427,-0.00773,0.200445
2428,-0.00772,0.200445
2429,-0.00771,0.200445
2430,-0.0077,0.200445
2431,-0.00769,0.200445
2432,-0.00768,0.200445
2433,-0.00767,0.200445
2434,-0.00766,0.200445
2435,-0.00765,0.200445
2436,-0.00764,0.200445
2437,-0.00763,0.200445
2438,-0.00762,0.200445
2439,-0.00761,0.200445
2440,-0.0076,0.200445
2441,-0.00759,0.200445
2442,-0.00758,0.200445
2443,-0.00757,0.200445
2444,-0.00756,0.200445
2445,-0.00755,0.200445
2446,-0.00754,0.200445
2447,-0.00753,0.200445
2448,-0.00752,0.200445
2449,-0.00751,0.200445
2450,-0.0075,0.200445
2451,-0.00749,0.200445
2452,-0.00748,0.200445
2453,-0.00747,0.200445
2454,-0.00746,0.200445
2455,-0.00745,0.200445
2456,-0.00744,0.200445
2457,-0.00743,0.200445
2458,-0.00742,0.200445
2459,-0.00741,0.200445
2460,-0.0074,0.200445
2461,-0.00739,0.200445
2462,-0.00738,0.200445
2463,-0.00737,0.200445
2464,-0.00736,0.200445
2465,-0.00735,0.200445
2466,-0.00734,0.200445
2467,-0.00733,0.200445
2468,-0.00732,0.200445
2469,-0.00731,0.200445
2470,-0.0073,0.200445
2471,-0.00729,0.200445
2472,-0.00728,0.200445
2473,-0.00727,0.200445
2474,-0.00726,0.200445
2475,-0.00725,0.200445
2476,-0.00724,0.200445
2477,-0.00723,0.200445
2478,-0.00722,0.200445
2479,-0.00721,0.200445
2480,-0.0072,0.200445
2481,-0.00719,0.200445
2482,-0.00718,0.200445
2483,-0.00717,0.200445
2484,-0.00716,0.200445
2485,-0.00715,0.200445
2486,-0.00714,0.200445
2487,-0.00713,0.200445
2488,-0.00712,0.200445
2489,-0.00711,0.200445
2490,-0.0071,0.200445
2491,-0.00709,0.200445
2492,-0.00708,0.200445
2493,-0.00707,0.200445
2494,-0.00706,0.200445
2495,-0.00705,0.200445
2496,-0.00704,0.200445
2497,-0.00703,0.200445
2498,-0.00702,0.200445
2499,-0.00701,0.200445
2500,-0.007,0.200445
2501,-0.00699,0.200445
2502,-0.00698,0.200445
2503,-0.00697,0.200445
2504,-0.00696,0.200445
2505,-0.00695,0.200445
2506,-0.00694,0.200445
2507,-0.00693,0.200445
2508,-0.00692,0.200445
2509,-0.00691,0.200445
2510,-0.0069,0.200445
2511,-0.00689,0.200445
2512,-0.00688,0.200445
2513,-0.00687,0.200445
2514,-0.00686,0.200445
2515,-0.00685,0.200445
2516,-0.00684,0.200445
2517,-0.00683,0.200445
2518,-0.00682,0.200445
2519,-0.00681,0.200445
2520,-0.0068,0.200445
2521,-0.00679,0.200445
2522,-0.00678,0.200445
2523,-0.00677,0.200445
2524,-0.00676,0.200445
2525,-0.00675,0.200445
2526,-0.00674,0.200445
2527,-0.00673,0.200445
2528,-0.00672,0.200445
2529,-0.00671,0.200445
2530,-0.0067,0.200445
2531,-0.00669,0.200445
2532,-0.00668,0.200445
2533,-0.00667,0.200445
2534,-0.00666,0.200445
2535,-0.00665,0.200445
2536,-0.00664,0.200445
2537,-0.00663,0.200445
2538,-0.00662,0.200445
2539,-0.00661,0.200445
2540,-0.0066,0.200445
2541,-0.00659,0.200445
2542,-0.00658,0.200445
2543,-0.00657,0.200445
2544,-0.00656,0.200445
2545,-0.00655,0.200445
2546,-0.00654,0.200445
2547,-0.00653,0.200445
2548,-0.00652,0.200445
2549,-0.00651,0.200445
2550,-0.0065,0.200445
2551,-0.00649,0.200445
2552,-0.00648,0.200445
2553,-0.00647,0.200445
2554,-0.00646,0.200445
2555,-0.00645,0.200445
2556,-0.00644,0.200445
2557,-0.00643,0.200445
2558,-0.00642,0.200445
2559,-0.00641,0.200445
2560,-0.0064,0.200445
2561,-0.00639,0.200445
2562,-0.00638,0.200445
2563,-0.00637,0.200445
2564,-0.00636,0.200445
2565,-0.00635,0.200445
2566,-0.00634,0.200445
2567,-0.00633,0.200445
2568,-0.00632,0.200445
2569,-0.00631,0.200445
2570,-0.0063,0.200445
2571,-0.00629,0.200445
2572,-0.00628,0.200445
2573,-0.00627,0.200445
2574,-0.00626,0.200445
2575,-0.00625,0.200445
2576,-0.00624,0.200445
2577,-0.00623,0.200445
2578,-0.00622,0.200445
2579,-0.00621,0.200445
2580,-0.0062,0.200445
2581,-0.00619,0.200445
2582,-0.00618,0.200445
2583,-0.00617,0.200445
2584,-0.00616,0.200445
2585,-0.00615,0.200445
2586,-0.00614,0.200445
2587,-0.00613,0.200445
2588,-0.00612,0.200445
2589,-0.00611,0.200445
2590,-0.0061,0.200445
2591,-0.00609,0.200445
2592,-0.00608,0.200445
2593,-0.00607,0.200445
2594,-0.00606,0.200445
2595,-0.00605,0.200445
2596,-0.00604,0.200445
2597,-0.00603,0.200445
2598,-0.00602,0.200445
2599,-0.00601,0.200445
2600,-0.006,0.200445
2601,-0.00599,0.200445
2602,-0.00598,0.200445
2603,-0.00597,0.200445
2604,-0.00596,0.200445
2605,-0.00595,0.200445
2606,-0.00594,0.200445
2607,-0.00593,0.200445
2608,-0.00592,0.200445
2609,-0.00591,0.200445
2610,-0.0059,0.200445
2611,-0.00589,0.200445
2612,-0.00588,0.200445
2613,-0.00587,0.200445
2614,-0.00586,0.200445
2615,-0.00585,0.200445
2616,-0.00584,0.200445
2617,-0.00583,0.200445
2618,-0.00582,0.200445
2619,-0.00581,0.200445
2620,-0.0058,0.200445
2621,-0.00579,0.200445
2622,-0.00578,0.200445
2623,-0.00577,0.200445
2624,-0.00576,0.200445
2625,-0.00575,0.200445
2626,-0.00574,0.200445
2627,-0.00573,0.200445
2628,-0.00572,0.200445
2629,-0.00571,0.200445
2630,-0.0057,0.200445
2631,-0.00569,0.200445
2632,-0.00568,0.200445
2633,-0.00567,0.200445
2634,-0.00566,0.200445
2635,-0.00565,0.200445
2636,-0.00564,0.200445
2637,-0.00563,0.200445
2638,-0.00562,0.200445
2639,-0.00561,0.200445
2640,-0.0056,0.200445
2641,-0.00559,0.200445
2642,-0.00558,0.200445
2643,-0.00557,0.200445
2644,-0.00556,0.200445
2645,-0.00555,0.200445
2646,-0.00554,0.200445
2647,-0.00553,0.200445
2648,-0.00552,0.200445
2649,-0.00551,0.200445
2650,-0.0055,0.200445
2651,-0.00549,0.200445
2652,-0.00548,0.200445
2653,-0.00547,0.200445
2654,-0.00546,0.200445
2655,-0.00545,0.200445
2656,-0.00544,0.200445
2657,-0.00543,0.200445
2658,-0.00542,0.200445
2659,-0.00541,0.200445
2660,-0.0054,0.200445
2661,-0.00539,0.200445
2662,-0.00538,0.200445
2663,-0.00537,0.200445
2664,-0.00536,0.200445
2665,-0.00535,0.200445
2666,-0.00534,0.200445
2667,-0.00533,0.200445
2668,-0.00532,0.200445
2669,-0.00531,0.200445
2670,-0.0053,0.200445
2671,-0.00529,0.200445
2672,-0.00528,0.200445
2673,-0.00527,0.200445
2674,-0.00526,0.200445
2675,-0.00525,0.200445
2676,-0.00524,0.200445
2677,-0.00523,0.200445
2678,-0.00522,0.200445
2679,-0.00521,0.200445
2680,-0.0052,0.200445
2681,-0.00519,0.200445
2682,-0.00518,0.200445
2683,-0.00517,0.200445
2684,-0.00516,0.200445
2685,-0.00515,0.200445
2686,-0.00514,0.200445
2687,-0.00513,0.200445
2688,-0.00512,0.200445
2689,-0.00511,0.200445
2690,-0.0051,0.200445
2691,-0.00509,0.200445
2692,-0.00508,0.200445
2693,-0.00507,0.200445
2694,-0.00506,0.200445
2695,-0.00505,0.200445
2696,-0.00504,0.200445
2697,-0.00503,0.200445
2698,-0.00502,0.200445
2699,-0.00501,0.200445
2700,-0.005,0.200445
2701,-0.00499,0.200445
2702,-0.00498,0.200445
2703,-0.00497,0.200445
2704,-0.00496,0.200445
2705,-0.00495,0.200445
2706,-0.00494,0.200445
2707,-0.00493,0.200445
2708,-0.00492,0.200445
2709,-0.00491,0.200445
2710,-0.0049,0.200445
2711,-0.00489,0.200445
2712,-0.00488,0.200445
2713,-0.00487,0.200445
2714,-0.00486,0.200445
2715,-0.00485,0.200445
2716,-0.00484,0.200445
2717,-0.00483,0.200445
2718,-0.00482,0.200445
2719,-0.00481,0.200445
2720,-0.0048,0.200445
2721,-0.00479,0.200445
2722,-0.00478,0.200445
2723,-0.00477,0.200445
2724,-0.00476,0.200445
2725,-0.00475,0.200445
2726,-0.00474,0.200445
2727,-0.00473,0.200445
2728,-0.00472,0.200445
2729,-0.00471,0.200445
2730,-0.0047,0.200445
2731,-0.00469,0.200445
2732,-0.00468,0.200445
2733,-0.00467,0.200445
2734,-0.00466,0.200445
2735,-0.00465,0.200445
2736,-0.00464,0.200445
2737,-0.00463,0.200445
2738,-0.00462,0.200445
2739,-0.00461,0.200445
2740,-0.0046,0.200445
2741,-0.00459,0.200445
2742,-0.00458,0.200445
2743,-0.00457,0.200445
2744,-0.00456,0.200445
2745,-0.00455,0.200445
2746,-0.00454,0.200445
2747,-0.00453,0.200445
2748,-0.00452,0.200445
2749,-0.00451,0.200445
2750,-0.0045,0.200445
2751,-0.00449,0.200445
2752,-0.00448,0.200445
2753,-0.00447,0.200445
2754,-0.00446,0.200445
2755,-0.00445,0.200445
2756,-0.00444,0.200445
2757,-0.00443,0.200445
2758,-0.00442,0.200445
2759,-0.00441,0.200445
2760,-0.0044,0.200445
2761,-0.00439,0.200445
2762,-0.00438,0.200445
2763,-0.00437,0.200445
2764,-0.00436,0.200445
2765,-0.00435,0.200445
2766,-0.00434,0.200445
2767,-0.00433,0.200445
2768,-0.00432,0.200445
2769,-0.00431,0.200445
2770,-0.0043,0.200445
2771,-0.00429,0.200445
2772,-0.00428,0.200445
2773,-0.00427,0.200445
2774,-0.00426,0.200445
2775,-0.00425,0.200445
2776,-0.00424,0.200445
2777,-0.00423,0.200445
2778,-0.00422,0.200445
2779,-0.00421,0.200445
2780,-0.0042,0.200445
2781,-0.00419,0.200445
2782,-0.00418,0.200445
2783,-0.00417,0.200445
2784,-0.00416,0.200445
2785,-0.00415,0.200445
2786,-0.00414,0.200445
2787,-0.00413,0.200445
2788,-0.00412,0.200445
2789,-0.00411,0.200445
2790,-0.0041,0.200445
2791,-0.00409,0.200445
2792,-0.00408,0.200445
2793,-0.00407,0.200445
2794,-0.00406,0.200445
2795,-0.00405,0.200445
2796,-0.00404,0.200445
2797,-0.00403,0.200445
2798,-0.00402,0.200445
2799,-0.00401,0.200445
2800,-0.004,0.200445
2801,-0.00399,0.200445
2802,-0.00398,0.200445
2803,-0.00397,0.200445
2804,-0.00396,0.200445
2805,-0.00395,0.200445
2806,-0.00394,0.200445
2807,-0.00393,0.200445
2808,-0.00392,0.200445
2809,-0.00391,0.200445
2810,-0.0039,0.200445
2811,-0.00389,0.200445
2812,-0.00388,0.200445
2813,-0.00387,0.200445
2814,-0.00386,0.200445
2815,-0.00385,0.200445
2816,-0.00384,0.200445
2817,-0.00383,0.200445
2818,-0.00382,0.200445
2819,-0.00381,0.200445
2820,-0.0038,0.200445
2821,-0.00379,0.200445
2822,-0.00378,0.200445
2823,-0.00377,0.200445
2824,-0.00376,0.200445
2825,-0.00375,0.200445
2826,-0.00374,0.200445
2827,-0.00373,0.200445
2828,-0.00372,0.200445
2829,-0.00371,0.200445
2830,-0.0037,0.200445
2831,-0.00369,0.200445
2832,-0.00368,0.200445
2833,-0.00367,0.200445
2834,-0.00366,0.200445
2835,-0.00365,0.200445
2836,-0.00364,0.200445
2837,-0.00363,0.200445
2838,-0.00362,0.200445
2839,-0.00361,0.200445
2840,-0.0036,0.200445
2841,-0.00359,0.200445
2842,-0.00358,0.200445
2843,-0.00357,0.200445
2844,-0.00356,0.200445
2845,-0.00355,0.200445
2846,-0.00354,0.200445
2847,-0.00353,0.200445
2848,-0.00352,0.200445
2849,-0.00351,0.200445
2850,-0.0035,0.200445
2851,-0.00349,0.200445
2852,-0.00348,0.200445
2853,-0.00347,0.200445
2854,-0.00346,0.200445
2855,-0.00345,0.200445
2856,-0.00344,0.200445
2857,-0.00343,0.200445
2858,-0.00342,0.200445
2859,-0.00341,0.200445
2860,-0.0034,0.200445
2861,-0.00339,0.200445
2862,-0.00338,0.200445
2863,-0.00337,0.200445
2864,-0.00336,0.200445
2865,-0.00335,0.200445
2866,-0.00334,0.200445
2867,-0.00333,0.200445
2868,-0.00332,0.200445
2869,-0.00331,0.200445
2870,-0.0033,0.200445
2871,-0.00329,0.200445
2872,-0.00328,0.200445
2873,-0.00327,0.200445
2874,-0.00326,0.200445
2875,-0.00325,0.200445
2876,-0.00324,0.200445
2877,-0.00323,0.200445
2878,-0.00322,0.200445
2879,-0.00321,0.200445
2880,-0.0032,0.200445
2881,-0.00319,0.200445
2882,-0.00318,0.200445
2883,-0.00317,0.200445
2884,-0.00316,0.200445
2885,-0.00315,0.200445
2886,-0.00314,0.200445
2887,-0.00313,0.200445
2888,-0.00312,0.200445
2889,-0.00311,0.200445
2890,-0.0031,0.200445
2891,-0.00309,0.200445
2892,-0.00308,0.200445
2893,-0.00307,0.200445
2894,-0.00306,0.200445
2895,-0.00305,0.200445
2896,-0.00304,0.200445
2897,-0.00303,0.200445
2898,-0.00302,0.200445
2899,-0.00301,0.200445
2900,-0.003,0.200445
2901,-0.00299,0.200445
2902,-0.00298,0.200445
2903,-0.00297,0.200445
2904,-0.00296,0.200445
2905,-0.00295,0.200445
2906,-0.00294,0.200445
2907,-0.00293,0.200445
2908,-0.00292,0.200445
2909,-0.00291,0.200445
2910,-0.0029,0.200445
2911,-0.00289,0.200445
2912,-0.00288,0.200445
2913,-0.00287,0.200445
2914,-0.00286,0.200445
2915,-0.00285,0.200445
2916,-0.00284,0.200445
2917,-0.00283,0.200445
2918,-0.00282,0.200445
2919,-0.00281,0.200445
2920,-0.0028,0.200445
2921,-0.00279,0.200445
2922,-0.00278,0.200445
2923,-0.00277,0.200445
2924,-0.00276,0.200445
2925,-0.00275,0.200445
2926,-0.00274,0.200445
2927,-0.00273,0.200445
2928,-0.00272,0.200445
2929,-0.00271,0.200445
2930,-0.0027,0.200445
2931,-0.00269,0.200445
2932,-0.00268,0.200445
2933,-0.00267,0.200445
2934,-0.00266,0.200445
2935,-0.00265,0.200445
2936,-0.00264,0.200445
2937,-0.00263,0.200445
2938,-0.00262,0.200445
2939,-0.00261,0.200445
2940,-0.0026,0.200445
2941,-0.00259,0.200445
2942,-0.00258,0.200445
2943,-0.00257,0.200445
2944,-0.00256,0.200445
2945,-0.00255,0.200445
2946,-0.00254,0.200445
2947,-0.00253,0.200445
2948,-0.00252,0.200445
2949,-0.00251,0.200445
2950,-0.0025,0.200445
2951,-0.00249,0.200445
2952,-0.00248,0.200445
2953,-0.00247,0.200445
2954,-0.00246,0.200445
2955,-0.00245,0.200445
2956,-0.00244,0.200445
2957,-0.00243,0.200445
2958,-0.00242,0.200445
2959,-0.00241,0.200445
2960,-0.0024,0.200445
2961,-0.00239,0.200445
2962,-0.00238,0.200445
2963,-0.00237,0.200445
2964,-0.00236,0.200445
2965,-0.00235,0.200445
2966,-0.00234,0.200445
2967,-0.00233,0.200445
2968,-0.00232,0.200445
2969,-0.00231,0.200445
2970,-0.0023,0.200445
2971,-0.00229,0.200445
2972,-0.00228,0.200445
2973,-0.00227,0.200445
2974,-0.00226,0.200445
2975,-0.00225,0.200445
2976,-0.00224,0.200445
2977,-0.00223,0.200445
2978,-0.00222,0.200445
2979,-0.00221,0.200445
2980,-0.0022,0.200445
2981,-0.00219,0.200445
2982,-0.00218,0.200445
2983,-0.00217,0.200445
2984,-0.00216,0.200445
2985,-0.00215,0.200445
2986,-0.00214,0.200445
2987,-0.00213,0.200445
2988,-0.00212,0.200445
2989,-0.00211,0.200445
2990,-0.0021,0.200445
2991,-0.00209,0.200445
2992,-0.00208,0.200445
2993,-0.00207,0.200445
2994,-0.00206,0.200445
2995,-0.00205,0.200445
2996,-0.00204,0.200445
2997,-0.00203,0.200445
2998,-0.00202,0.200445
2999,-0.00201,0.200445
3000,-0.002,0.200445
3001,-0.00199,0.200445
3002,-0.00198,0.200445
3003,-0.00197,0.200445
3004,-0.00196,0.200445
3005,-0.00195,0.200445
3006,-0.00194,0.200445
3007,-0.00193,0.200445
3008,-0.00192,0.200445
3009,-0.00191,0.200445
3010,-0.0019,0.200445
3011,-0.00189,0.200445
3012,-0.00188,0.200445
3013,-0.00187,0.200445
3014,-0.00186,0.200445
3015,-0.00185,0.200445
3016,-0.00184,0.200445
3017,-0.00183,0.200445
3018,-0.00182,0.200445
3019,-0.00181,0.200445
3020,-0.0018,0.200445
3021,-0.00179,0.200445
3022,-0.00178,0.200445
3023,-0.00177,0.200445
3024,-0.00176,0.200445
3025,-0.00175,0.200445
3026,-0.00174,0.200445
3027,-0.00173,0.200445
3028,-0.00172,0.200445
3029,-0.00171,0.200445
3030,-0.0017,0.200445
3031,-0.00169,0.200445
3032,-0.00168,0.200445
3033,-0.00167,0.200445
3034,-0.00166,0.200445
3035,-0.00165,0.200445
3036,-0.00164,0.200445
3037,-0.00163,0.200445
3038,-0.00162,0.200445
3039,-0.00161,0.200445
3040,-0.0016,0.200445
3041,-0.00159,0.200445
3042,-0.00158,0.200445
3043,-0.00157,0.200445
3044,-0.00156,0.200445
3045,-0.00155,0.200445
3046,-0.00154,0.200445
3047,-0.00153,0.200445
3048,-0.00152,0.200445
3049,-0.00151,0.200445
3050,-0.0015,0.200445
3051,-0.00149,0.200445
3052,-0.00148,0.200445
3053,-0.00147,0.200445
3054,-0.00146,0.200445
3055,-0.00145,0.200445
3056,-0.00144,0.200445
3057,-0.00143,0.200445
3058,-0.00142,0.200445
3059,-0.00141,0.200445
3060,-0.0014,0.200445
3061,-0.00139,0.200445
3062,-0.00138,0.200445
3063,-0.00137,0.200445
3064,-0.00136,0.183741
3065,-0.00135,0.217148
3066,-0.00134,0.317371
3067,-0.00133,0.116926
3068,-0.00132,4.4766
3069,-0.00131,4.45989
3070,-0.0013,4.57682
3071,-0.00129,4.69375
3072,-0.00128,4.79397
3073,-0.00127,4.9276
3074,-0.00126,5.06123
3075,-0.00125,5.26167
3076,-0.00124,5.47882
3077,-0.00123,5.74608
3078,-0.00122,6.08015
3079,-0.00121,5.92982
3080,-0.0012,13.1458
3081,-0.00119,14.3485
3082,-0.00118,14.432
3083,-0.00117,14.3986
3084,-0.00116,14.3652
3085,-0.00115,14.3318
3086,-0.00114,14.2984
3087,-0.00113,14.2817
3088,-0.00112,14.2483
3089,-0.00111,14.2316
3090,-0.0011,14.2483
3091,-0.00109,14.2149
3092,-0.00108,14.2149
3093,-0.00107,14.2149
3094,-0.00106,14.2149
3095,-0.00105,14.2149
3096,-0.00104,14.2149
3097,-0.00103,14.2149
3098,-0.00102,14.2149
3099,-0.00101,14.2149
3100,-0.001,14.2149
3101,-0.00099,14.2149
3102,-0.00098,14.2149
3103,-0.00097,14.2149
3104,-0.00096,14.2149
3105,-0.00095,14.2149
3106,-0.00094,14.2149
3107,-0.00093,14.2149
3108,-0.00092,14.2149
3109,-0.00091,14.2149
3110,-0.0009,14.2149
3111,-0.00089,14.2149
3112,-0.00088,14.2149
3113,-0.00087,14.2149
3114,-0.00086,14.2149
3115,-0.00085,14.2149
3116,-0.00084,14.2149
3117,-0.00083,14.2149
3118,-0.00082,14.2149
3119,-0.00081,14.2149
3120,-0.0008,14.2149
3121,-0.00079,14.2149
3122,-0.00078,14.2149
3123,-0.00077,14.2149
3124,-0.00076,14.2149
3125,-0.00075,14.2149
3126,-0.00074,14.2149
3127,-0.00073,14.2149
3128,-0.00072,14.2149
3129,-0.00071,14.2149
3130,-0.0007,14.2149
3131,-0.00069,14.2149
3132,-0.00068,14.2149
3133,-0.00067,14.2149
3134,-0.00066,14.2149
3135,-0.00065,14.2149
3136,-0.00064,14.2149
3137,-0.00063,14.2149
3138,-0.00062,14.2149
3139,-0.00061,14.2149
3140,-0.0006,14.2149
3141,-0.00059,14.2149
3142,-0.00058,14.2149
3143,-0.00057,14.2149
3144,-0.00056,14.2149
3145,-0.00055,14.2149
3146,-0.00054,14.2149
3147,-0.00053,14.2149
3148,-0.00052,14.2149
3149,-0.00051,14.2149
3150,-0.0005,14.2149
3151,-0.00049,14.2149
3152,-0.00048,14.2149
3153,-0.00047,14.2149
3154,-0.00046,14.2149
3155,-0.00045,14.2149
3156,-0.00044,14.2149
3157,-0.00043,14.2149
3158,-0.00042,14.2149
3159,-0.00041,14.2149
3160,-0.0004,14.2149
3161,-0.00039,14.2149
3162,-0.00038,14.2149
3163,-0.00037,14.2149
3164,-0.00036,14.2149
3165,-0.00035,14.2149
3166,-0.00034,14.2149
3167,-0.00033,14.2149
3168,-0.00032,14.2149
3169,-0.00031,14.2149
3170,-0.0003,14.2149
3171,-0.00029,14.2149
3172,-0.00028,14.2149
3173,-0.00027,14.2149
3174,-0.00026,14.2149
3175,-0.00025,14.2149
3176,-0.00024,14.2149
3177,-0.00023,14.2149
3178,-0.00022,14.2149
3179,-0.00021,14.2149
3180,-0.0002,14.2149
3181,-0.00019,14.2149
3182,-0.00018,14.2149
3183,-0.00017,14.2149
3184,-0.00016,14.2149
3185,-0.00015,14.2149
3186,-0.00014,14.2149
3187,-0.00013,14.2149
3188,-0.00012,14.2149
3189,-0.00011,14.2149
3190,-0.0001,14.2149
3191,-9e-05,14.2149
3192,-8e-05,14.2149
3193,-7e-05,14.2149
3194,-6e-05,14.2149
3195,-5e-05,14.3819
3196,-4e-05,8.23493
3197,-3e-05,-0.668149
3198,-2e-05,-0.0835186
3199,-1e-05,-0.0835186
3200,0,-0.0334074
3201,1e-05,0.0334074
3202,2e-05,0.0668149
3203,3e-05,0.13363
3204,4e-05,0.13363
3205,5e-05,0.150333
3206,6e-05,0.183741
3207,7e-05,0.167037
3208,8e-05,0.200445
3209,9e-05,0.200445
3210,0.0001,0.200445
3211,0.00011,0.200445
3212,0.00012,0.217148
3213,0.00013,0.217148
3214,0.00014,0.217148
3215,0.00015,0.217148
3216,0.00016,0.217148
3217,0.00017,0.217148
3218,0.00018,0.217148
3219,0.00019,0.217148
3220,0.0002,0.183741
3221,0.00021,0.200445
3222,0.00022,0.200445
3223,0.00023,0.200445
3224,0.00024,0.200445
3225,0.00025,0.200445
3226,0.00026,0.200445
3227,0.00027,0.200445
3228,0.00028,0.200445
3229,0.00029,0.200445
3230,0.0003,0.200445
3231,0.00031,0.200445
3232,0.00032,0.200445
3233,0.00033,0.183741
3234,0.00034,0.217148
3235,0.00035,0.183741
3236,0.00036,0.200445
3237,0.00037,0.200445
3238,0.00038,0.200445
3239,0.00039,0.200445
3240,0.0004,0.200445
3241,0.00041,0.200445
3242,0.00042,0.200445
3243,0.00043,0.200445
3244,0.00044,0.200445
3245,0.00045,0.200445
3246,0.00046,0.200445
3247,0.00047,0.200445
3248,0.00048,0.200445
3249,0.00049,0.200445
3250,0.0005,0.200445
3251,0.00051,0.200445
3252,0.00052,0.200445
3253,0.00053,0.200445
3254,0.00054,0.200445
3255,0.00055,0.200445
3256,0.00056,0.200445
3257,0.00057,0.200445
3258,0.00058,0.200445
3259,0.00059,0.200445
3260,0.0006,0.200445
3261,0.00061,0.200445
3262,0.00062,0.200445
3263,0.00063,0.200445
3264,0.00064,0.200445
3265,0.00065,0.200445
3266,0.00066,0.200445
3267,0.00067,0.200445
3268,0.00068,0.200445
3269,0.00069,0.200445
3270,0.0007,0.200445
3271,0.00071,0.200445
3272,0.00072,0.200445
3273,0.00073,0.200445
3274,0.00074,0.200445
3275,0.00075,0.200445
3276,0.00076,0.200445
3277,0.00077,0.200445
3278,0.00078,0.200445
3279,0.00079,0.200445
3280,0.0008,0.200445
3281,0.00081,0.200445
3282,0.00082,0.200445
3283,0.00083,0.200445
3284,0.00084,0.200445
3285,0.00085,0.200445
3286,0.00086,0.200445
3287,0.00087,0.200445
3288,0.00088,0.200445
3289,0.00089,0.200445
3290,0.0009,0.200445
3291,0.00091,0.200445
3292,0.00092,0.200445
3293,0.00093,0.200445
3294,0.00094,0.200445
3295,0.00095,0.200445
3296,0.00096,0.200445
3297,0.00097,0.200445
3298,0.00098,0.200445
3299,0.00099,0.200445
3300,0.001,0.200445
3301,0.00101,0.200445
3302,0.00102,0.200445
3303,0.00103,0.200445
3304,0.00104,0.200445
3305,0.00105,0.200445
3306,0.00106,0.200445
3307,0.00107,0.200445
3308,0.00108,0.200445
3309,0.00109,0.200445
3310,0.0011,0.200445
3311,0.00111,0.200445
3312,0.00112,0.200445
3313,0.00113,0.200445
3314,0.00114,0.200445
3315,0.00115,0.200445
3316,0.00116,0.200445
3317,0.00117,0.200445
3318,0.00118,0.200445
3319,0.00119,0.200445
3320,0.0012,0.200445
3321,0.00121,0.200445
3322,0.00122,0.200445
3323,0.00123,0.200445
3324,0.00124,0.200445
3325,0.00125,0.200445
3326,0.00126,0.200445
3327,0.00127,0.200445
3328,0.00128,0.200445
3329,0.00129,0.200445
3330,0.0013,0.200445
3331,0.00131,0.200445
3332,0.00132,0.200445
3333,0.00133,0.200445
3334,0.00134,0.200445
3335,0.00135,0.200445
3336,0.00136,0.200445
3337,0.00137,0.200445
3338,0.00138,0.200445
3339,0.00139,0.200445
3340,0.0014,0.200445
3341,0.00141,0.200445
3342,0.00142,0.200445
3343,0.00143,0.200445
3344,0.00144,0.200445
3345,0.00145,0.200445
3346,0.00146,0.200445
3347,0.00147,0.200445
3348,0.00148,0.200445
3349,0.00149,0.200445
3350,0.0015,0.200445
3351,0.00151,0.200445
3352,0.00152,0.200445
3353,0.00153,0.200445
3354,0.00154,0.200445
3355,0.00155,0.200445
3356,0.00156,0.200445
3357,0.00157,0.200445
3358,0.00158,0.200445
3359,0.00159,0.200445
3360,0.0016,0.200445
3361,0.00161,0.200445
3362,0.00162,0.200445
3363,0.00163,0.200445
3364,0.00164,0.200445
3365,0.00165,0.200445
3366,0.00166,0.200445
3367,0.00167,0.200445
3368,0.00168,0.200445
3369,0.00169,0.200445
3370,0.0017,0.200445
3371,0.00171,0.200445
3372,0.00172,0.200445
3373,0.00173,0.200445
3374,0.00174,0.200445
3375,0.00175,0.200445
3376,0.00176,0.200445
3377,0.00177,0.200445
3378,0.00178,0.200445
3379,0.00179,0.200445
3380,0.0018,0.200445
3381,0.00181,0.200445
3382,0.00182,0.200445
3383,0.00183,0.200445
3384,0.00184,0.200445
3385,0.00185,0.200445
3386,0.00186,0.200445
3387,0.00187,0.200445
3388,0.00188,0.200445
3389,0.00189,0.200445
3390,0.0019,0.200445
3391,0.00191,0.200445
3392,0.00192,0.200445
3393,0.00193,0.200445
3394,0.00194,0.200445
3395,0.00195,0.200445
3396,0.00196,0.200445
3397,0.00197,0.200445
3398,0.00198,0.200445
3399,0.00199,0.200445
3400,0.002,0.200445
3401,0.00201,0.200445
3402,0.00202,0.200445
3403,0.00203,0.200445
3404,0.00204,0.200445
3405,0.00205,0.200445
3406,0.00206,0.200445
3407,0.00207,0.200445
3408,0.00208,0.200445
3409,0.00209,0.200445
3410,0.0021,0.200445
3411,0.00211,0.200445
3412,0.00212,0.200445
3413,0.00213,0.200445
3414,0.00214,0.200445
3415,0.00215,0.200445
3416,0.00216,0.200445
3417,0.00217,0.200445
3418,0.00218,0.200445
3419,0.00219,0.200445
3420,0.0022,0.200445
3421,0.00221,0.200445
3422,0.00222,0.200445
3423,0.00223,0.200445
3424,0.00224,0.200445
3425,0.00225,0.200445
3426,0.00226,0.200445
3427,0.00227,0.200445
3428,0.00228,0.200445
3429,0.00229,0.200445
3430,0.0023,0.200445
3431,0.00231,0.200445
3432,0.00232,0.200445
3433,0.00233,0.200445
3434,0.00234,0.200445
3435,0.00235,0.200445
3436,0.00236,0.200445
3437,0.00237,0.200445
3438,0.00238,0.200445
3439,0.00239,0.200445
3440,0.0024,0.200445
3441,0.00241,0.200445
3442,0.00242,0.200445
3443,0.00243,0.200445
3444,0.00244,0.200445
3445,0.00245,0.200445
3446,0.00246,0.200445
3447,0.00247,0.200445
3448,0.00248,0.200445
3449,0.00249,0.200445
3450,0.0025,0.200445
3451,0.00251,0.200445
3452,0.00252,0.200445
3453,0.00253,0.200445
3454,0.00254,0.200445
3455,0.00255,0.200445
3456,0.00256,0.200445
3457,0.00257,0.200445
3458,0.00258,0.200445
3459,0.00259,0.200445
3460,0.0026,0.200445
3461,0.00261,0.200445
3462,0.00262,0.200445
3463,0.00263,0.200445
3464,0.00264,0.200445
3465,0.00265,0.200445
3466,0.00266,0.200445
3467,0.00267,0.200445
3468,0.00268,0.200445
3469,0.00269,0.200445
3470,0.0027,0.200445
3471,0.00271,0.200445
3472,0.00272,0.200445
3473,0.00273,0.200445
3474,0.00274,0.200445
3475,0.00275,0.200445
3476,0.00276,0.200445
3477,0.00277,0.200445
3478,0.00278,0.200445
3479,0.00279,0.200445
3480,0.0028,0.200445
3481,0.00281,0.200445
3482,0.00282,0.200445
3483,0.00283,0.200445
3484,0.00284,0.200445
3485,0.00285,0.200445
3486,0.00286,0.200445
3487,0.00287,0.200445
3488,0.00288,0.200445
3489,0.00289,0.200445
3490,0.0029,0.200445
3491,0.00291,0.200445
3492,0.00292,0.200445
3493,0.00293,0.200445
3494,0.00294,0.200445
3495,0.00295,0.200445
3496,0.00296,0.200445
3497,0.00297,0.200445
3498,0.00298,0.200445
3499,0.00299,0.200445
3500,0.003,0.200445
3501,0.00301,0.200445
3502,0.00302,0.200445
3503,0.00303,0.200445
3504,0.00304,0.200445
3505,0.00305,0.200445
3506,0.00306,0.200445
3507,0.00307,0.200445
3508,0.00308,0.200445
3509,0.00309,0.200445
3510,0.0031,0.200445
3511,0.00311,0.200445
3512,0.00312,0.200445
3513,0.00313,0.200445
3514,0.00314,0.200445
3515,0.00315,0.200445
3516,0.00316,0.200445
3517,0.00317,0.200445
3518,0.00318,0.200445
3519,0.00319,0.200445
3520,0.0032,0.200445
3521,0.00321,0.200445
3522,0.00322,0.200445
3523,0.00323,0.200445
3524,0.00324,0.200445
3525,0.00325,0.200445
3526,0.00326,0.200445
3527,0.00327,0.200445
3528,0.00328,0.200445
3529,0.00329,0.200445
3530,0.0033,0.200445
3531,0.00331,0.200445
3532,0.00332,0.200445
3533,0.00333,0.200445
3534,0.00334,0.200445
3535,0.00335,0.200445
3536,0.00336,0.200445
3537,0.00337,0.200445
3538,0.00338,0.200445
3539,0.00339,0.200445
3540,0.0034,0.200445
3541,0.00341,0.200445
3542,0.00342,0.200445
3543,0.00343,0.200445
3544,0.00344,0.200445
3545,0.00345,0.200445
3546,0.00346,0.200445
3547,0.00347,0.200445
3548,0.00348,0.200445
3549,0.00349,0.200445
3550,0.0035,0.200445
3551,0.00351,0.200445
3552,0.00352,0.200445
3553,0.00353,0.200445
3554,0.00354,0.200445
3555,0.00355,0.200445
3556,0.00356,0.200445
3557,0.00357,0.200445
3558,0.00358,0.200445
3559,0.00359,0.200445
3560,0.0036,0.200445
3561,0.00361,0.200445
3562,0.00362,0.200445
3563,0.00363,0.200445
3564,0.00364,0.200445
3565,0.00365,0.200445
3566,0.00366,0.200445
3567,0.00367,0.200445
3568,0.00368,0.200445
3569,0.00369,0.200445
3570,0.0037,0.200445
3571,0.00371,0.200445
3572,0.00372,0.200445
3573,0.00373,0.200445
3574,0.00374,0.200445
3575,0.00375,0.200445
3576,0.00376,0.200445
3577,0.00377,0.200445
3578,0.00378,0.200445
3579,0.00379,0.200445
3580,0.0038,0.200445
3581,0.00381,0.200445
3582,0.00382,0.200445
3583,0.00383,0.200445
3584,0.00384,0.200445
3585,0.00385,0.200445
3586,0.00386,0.200445
3587,0.00387,0.200445
3588,0.00388,0.200445
3589,0.00389,0.200445
3590,0.0039,0.200445
3591,0.00391,0.200445
3592,0.00392,0.200445
3593,0.00393,0.200445
3594,0.00394,0.200445
3595,0.00395,0.200445
3596,0.00396,0.200445
3597,0.00397,0.200445
3598,0.00398,0.200445
3599,0.00399,0.200445
3600,0.004,0.200445
3601,0.00401,0.200445
3602,0.00402,0.200445
3603,0.00403,0.200445
3604,0.00404,0.200445
3605,0.00405,0.200445
3606,0.00406,0.200445
3607,0.00407,0.200445
3608,0.00408,0.200445
3609,0.00409,0.200445
3610,0.0041,0.200445
3611,0.00411,0.200445
3612,0.00412,0.200445
3613,0.00413,0.200445
3614,0.00414,0.200445
3615,0.00415,0.200445
3616,0.00416,0.200445
3617,0.00417,0.200445
3618,0.00418,0.200445
3619,0.00419,0.200445
3620,0.0042,0.200445
3621,0.00421,0.200445
3622,0.00422,0.200445
3623,0.00423,0.200445
3624,0.00424,0.200445
3625,0.00425,0.200445
3626,0.00426,0.200445
3627,0.00427,0.200445
3628,0.00428,0.200445
3629,0.00429,0.200445
3630,0.0043,0.200445
3631,0.00431,0.200445
3632,0.00432,0.200445
3633,0.00433,0.200445
3634,0.00434,0.200445
3635,0.00435,0.200445
3636,0.00436,0.200445
3637,0.00437,0.200445
3638,0.00438,0.200445
3639,0.00439,0.200445
3640,0.0044,0.200445
3641,0.00441,0.200445
3642,0.00442,0.200445
3643,0.00443,0.200445
3644,0.00444,0.200445
3645,0.00445,0.200445
3646,0.00446,0.200445
3647,0.00447,0.200445
3648,0.00448,0.200445
3649,0.00449,0.200445
3650,0.0045,0.200445
3651,0.00451,0.200445
3652,0.00452,0.200445
3653,0.00453,0.200445
3654,0.00454,0.200445
3655,0.00455,0.200445
3656,0.00456,0.200445
3657,0.00457,0.200445
3658,0.00458,0.200445
3659,0.00459,0.200445
3660,0.0046,0.200445
3661,0.00461,0.200445
3662,0.00462,0.200445
3663,0.00463,0.200445
3664,0.00464,0.200445
3665,0.00465,0.200445
3666,0.00466,0.200445
3667,0.00467,0.200445
3668,0.00468,0.200445
3669,0.00469,0.200445
3670,0.0047,0.200445
3671,0.00471,0.200445
3672,0.00472,0.200445
3673,0.00473,0.200445
3674,0.00474,0.200445
3675,0.00475,0.200445
3676,0.00476,0.200445
3677,0.00477,0.200445
3678,0.00478,0.200445
3679,0.00479,0.200445
3680,0.0048,0.200445
3681,0.00481,0.200445
3682,0.00482,0.200445
3683,0.00483,0.200445
3684,0.00484,0.200445
3685,0.00485,0.200445
3686,0.00486,0.200445
3687,0.00487,0.200445
3688,0.00488,0.200445
3689,0.00489,0.200445
3690,0.0049,0.200445
3691,0.00491,0.200445
3692,0.00492,0.200445
3693,0.00493,0.200445
3694,0.00494,0.200445
3695,0.00495,0.200445
3696,0.00496,0.200445
3697,0.00497,0.200445
3698,0.00498,0.200445
3699,0.00499,0.200445
3700,0.005,0.200445
3701,0.00501,0.200445
3702,0.00502,0.200445
3703,0.00503,0.200445
3704,0.00504,0.200445
3705,0.00505,0.200445
3706,0.00506,0.200445
3707,0.00507,0.200445
3708,0.00508,0.200445
3709,0.00509,0.200445
3710,0.0051,0.200445
3711,0.00511,0.200445
3712,0.00512,0.200445
3713,0.00513,0.200445
3714,0.00514,0.200445
3715,0.00515,0.200445
3716,0.00516,0.200445
3717,0.00517,0.200445
3718,0.00518,0.200445
3719,0.00519,0.200445
3720,0.0052,0.200445
3721,0.00521,0.200445
3722,0.00522,0.200445
3723,0.00523,0.200445
3724,0.00524,0.200445
3725,0.00525,0.200445
3726,0.00526,0.200445
3727,0.00527,0.200445
3728,0.00528,0.200445
3729,0.00529,0.200445
3730,0.0053,0.200445
3731,0.00531,0.200445
3732,0.00532,0.200445
3733,0.00533,0.200445
3734,0.00534,0.200445
3735,0.00535,0.200445
3736,0.00536,0.200445
3737,0.00537,0.200445
3738,0.00538,0.200445
3739,0.00539,0.200445
3740,0.0054,0.200445
3741,0.00541,0.200445
3742,0.00542,0.200445
3743,0.00543,0.200445
3744,0.00544,0.200445
3745,0.00545,0.200445
3746,0.00546,0.200445
3747,0.00547,0.200445
3748,0.00548,0.200445
3749,0.00549,0.200445
3750,0.0055,0.200445
3751,0.00551,0.200445
3752,0.00552,0.200445
3753,0.00553,0.200445
3754,0.00554,0.200445
3755,0.00555,0.200445
3756,0.00556,0.200445
3757,0.00557,0.200445
3758,0.00558,0.200445
3759,0.00559,0.200445
3760,0.0056,0.200445
3761,0.00561,0.200445
3762,0.00562,0.200445
3763,0.00563,0.200445
3764,0.00564,0.200445
3765,0.00565,0.200445
3766,0.00566,0.200445
3767,0.00567,0.200445
3768,0.00568,0.200445
3769,0.00569,0.200445
3770,0.0057,0.200445
3771,0.00571,0.200445
3772,0.00572,0.200445
3773,0.00573,0.200445
3774,0.00574,0.200445
3775,0.00575,0.200445
3776,0.00576,0.200445
3777,0.00577,0.200445
3778,0.00578,0.200445
3779,0.00579,0.200445
3780,0.0058,0.200445
3781,0.00581,0.200445
3782,0.00582,0.200445
3783,0.00583,0.200445
3784,0.00584,0.200445
3785,0.00585,0.200445
3786,0.00586,0.200445
3787,0.00587,0.200445
3788,0.00588,0.200445
3789,0.00589,0.200445
3790,0.0059,0.200445
3791,0.00591,0.200445
3792,0.00592,0.200445
3793,0.00593,0.200445
3794,0.00594,0.200445
3795,0.00595,0.200445
3796,0.00596,0.200445
3797,0.00597,0.200445
3798,0.00598,0.200445
3799,0.00599,0.200445
3800,0.006,0.200445
3801,0.00601,0.200445
3802,0.00602,0.200445
3803,0.00603,0.200445
3804,0.00604,0.200445
3805,0.00605,0.200445
3806,0.00606,0.200445
3807,0.00607,0.200445
3808,0.00608,0.200445
3809,0.00609,0.200445
3810,0.0061,0.200445
3811,0.00611,0.200445
3812,0.00612,0.200445
3813,0.00613,0.200445
3814,0.00614,0.200445
3815,0.00615,0.200445
3816,0.00616,0.200445
3817,0.00617,0.200445
3818,0.00618,0.200445
3819,0.00619,0.200445
3820,0.0062,0.200445
3821,0.00621,0.200445
3822,0.00622,0.200445
3823,0.00623,0.200445
3824,0.00624,0.200445
3825,0.00625,0.200445
3826,0.00626,0.200445
3827,0.00627,0.200445
3828,0.00628,0.200445
3829,0.00629,0.200445
3830,0.0063,0.200445
3831,0.00631,0.200445
3832,0.00632,0.200445
3833,0.00633,0.200445
3834,0.00634,0.200445
3835,0.00635,0.200445
3836,0.00636,0.200445
3837,0.00637,0.200445
3838,0.00638,0.200445
3839,0.00639,0.200445
3840,0.0064,0.200445
3841,0.00641,0.200445
3842,0.00642,0.200445
3843,0.00643,0.200445
3844,0.00644,0.200445
3845,0.00645,0.200445
3846,0.00646,0.200445
3847,0.00647,0.200445
3848,0.00648,0.200445
3849,0.00649,0.200445
3850,0.0065,0.200445
3851,0.00651,0.200445
3852,0.00652,0.200445
3853,0.00653,0.200445
3854,0.00654,0.200445
3855,0.00655,0.200445
3856,0.00656,0.200445
3857,0.00657,0.200445
3858,0.00658,0.200445
3859,0.00659,0.200445
3860,0.0066,0.200445
3861,0.00661,0.200445
3862,0.00662,0.200445
3863,0.00663,0.200445
3864,0.00664,0.200445
3865,0.00665,0.200445
3866,0.00666,0.200445
3867,0.00667,0.200445
3868,0.00668,0.200445
3869,0.00669,0.200445
3870,0.0067,0.200445
3871,0.00671,0.200445
3872,0.00672,0.200445
3873,0.00673,0.200445
3874,0.00674,0.200445
3875,0.00675,0.200445
3876,0.00676,0.200445
3877,0.00677,0.200445
3878,0.00678,0.200445
3879,0.00679,0.200445
3880,0.0068,0.200445
3881,0.00681,0.200445
3882,0.00682,0.200445
3883,0.00683,0.200445
3884,0.00684,0.200445
3885,0.00685,0.200445
3886,0.00686,0.200445
3887,0.00687,0.200445
3888,0.00688,0.200445
3889,0.00689,0.200445
3890,0.0069,0.200445
3891,0.00691,0.200445
3892,0.00692,0.200445
3893,0.00693,0.200445
3894,0.00694,0.200445
3895,0.00695,0.200445
3896,0.00696,0.200445
3897,0.00697,0.200445
3898,0.00698,0.200445
3899,0.00699,0.200445
3900,0.007,0.200445
3901,0.00701,0.200445
3902,0.00702,0.200445
3903,0.00703,0.200445
3904,0.00704,0.200445
3905,0.00705,0.200445
3906,0.00706,0.200445
3907,0.00707,0.200445
3908,0.00708,0.200445
3909,0.00709,0.200445
3910,0.0071,0.200445
3911,0.00711,0.200445
3912,0.00712,0.200445
3913,0.00713,0.200445
3914,0.00714,0.200445
3915,0.00715,0.200445
3916,0.00716,0.200445
3917,0.00717,0.200445
3918,0.00718,0.200445
3919,0.00719,0.200445
3920,0.0072,0.200445
3921,0.00721,0.200445
3922,0.00722,0.200445
3923,0.00723,0.200445
3924,0.00724,0.200445
3925,0.00725,0.200445
3926,0.00726,0.200445
3927,0.00727,0.200445
3928,0.00728,0.200445
3929,0.00729,0.200445
3930,0.0073,0.200445
3931,0.00731,0.200445
3932,0.00732,0.200445
3933,0.00733,0.200445
3934,0.00734,0.200445
3935,0.00735,0.200445
3936,0.00736,0.200445
3937,0.00737,0.200445
3938,0.00738,0.200445
3939,0.00739,0.200445
3940,0.0074,0.200445
3941,0.00741,0.200445
3942,0.00742,0.200445
3943,0.00743,0.200445
3944,0.00744,0.200445
3945,0.00745,0.200445
3946,0.00746,0.200445
3947,0.00747,0.200445
3948,0.00748,0.200445
3949,0.00749,0.200445
3950,0.0075,0.200445
3951,0.00751,0.200445
3952,0.00752,0.200445
3953,0.00753,0.200445
3954,0.00754,0.200445
3955,0.00755,0.200445
3956,0.00756,0.200445
3957,0.00757,0.200445
3958,0.00758,0.200445
3959,0.00759,0.200445
3960,0.0076,0.200445
3961,0.00761,0.200445
3962,0.00762,0.200445
3963,0.00763,0.200445
3964,0.00764,0.200445
3965,0.00765,0.200445
3966,0.00766,0.200445
3967,0.00767,0.200445
3968,0.00768,0.200445
3969,0.00769,0.200445
3970,0.0077,0.200445
3971,0.00771,0.200445
3972,0.00772,0.200445
3973,0.00773,0.200445
3974,0.00774,0.200445
3975,0.00775,0.200445
3976,0.00776,0.200445
3977,0.00777,0.200445
3978,0.00778,0.200445
3979,0.00779,0.200445
3980,0.0078,0.200445
3981,0.00781,0.200445
3982,0.00782,0.200445
3983,0.00783,0.200445
3984,0.00784,0.200445
3985,0.00785,0.200445
3986,0.00786,0.200445
3987,0.00787,0.200445
3988,0.00788,0.200445
3989,0.00789,0.200445
3990,0.0079,0.200445
3991,0.00791,0.200445
3992,0.00792,0.200445
3993,0.00793,0.200445
3994,0.00794,0.200445
3995,0.00795,0.200445
3996,0.00796,0.200445
3997,0.00797,0.200445
3998,0.00798,0.200445
3999,0.00799,0.200445
4000,0.008,0.200445
4001,0.00801,0.200445
4002,0.00802,0.200445
4003,0.00803,0.200445
4004,0.00804,0.200445
4005,0.00805,0.200445
4006,0.00806,0.200445
4007,0.00807,0.200445
4008,0.00808,0.200445
4009,0.00809,0.200445
4010,0.0081,0.200445
4011,0.00811,0.200445
4012,0.00812,0.200445
4013,0.00813,0.200445
4014,0.00814,0.200445
4015,0.00815,0.200445
4016,0.00816,0.200445
4017,0.00817,0.200445
4018,0.00818,0.200445
4019,0.00819,0.200445
4020,0.0082,0.200445
4021,0.00821,0.200445
4022,0.00822,0.200445
4023,0.00823,0.200445
4024,0.00824,0.200445
4025,0.00825,0.200445
4026,0.00826,0.200445
4027,0.00827,0.200445
4028,0.00828,0.200445
4029,0.00829,0.200445
4030,0.0083,0.200445
4031,0.00831,0.200445
4032,0.00832,0.200445
4033,0.00833,0.200445
4034,0.00834,0.200445
4035,0.00835,0.200445
4036,0.00836,0.200445
4037,0.00837,0.200445
4038,0.00838,0.200445
4039,0.00839,0.200445
4040,0.0084,0.200445
4041,0.00841,0.200445
4042,0.00842,0.200445
4043,0.00843,0.200445
4044,0.00844,0.200445
4045,0.00845,0.200445
4046,0.00846,0.200445
4047,0.00847,0.200445
4048,0.00848,0.200445
4049,0.00849,0.200445
4050,0.0085,0.200445
4051,0.00851,0.200445
4052,0.00852,0.200445
4053,0.00853,0.200445
4054,0.00854,0.200445
4055,0.00855,0.200445
4056,0.00856,0.200445
4057,0.00857,0.200445
4058,0.00858,0.200445
4059,0.00859,0.200445
4060,0.0086,0.200445
4061,0.00861,0.200445
4062,0.00862,0.200445
4063,0.00863,0.200445
4064,0.00864,0.200445
4065,0.00865,0.200445
4066,0.00866,0.200445
4067,0.00867,0.200445
4068,0.00868,0.200445
4069,0.00869,0.200445
4070,0.0087,0.200445
4071,0.00871,0.200445
4072,0.00872,0.200445
4073,0.00873,0.200445
4074,0.00874,0.200445
4075,0.00875,0.200445
4076,0.00876,0.200445
4077,0.00877,0.200445
4078,0.00878,0.200445
4079,0.00879,0.200445
4080,0.0088,0.200445
4081,0.00881,0.200445
4082,0.00882,0.200445
4083,0.00883,0.200445
4084,0.00884,0.200445
4085,0.00885,0.200445
4086,0.00886,0.200445
4087,0.00887,0.200445
4088,0.00888,0.200445
4089,0.00889,0.200445
4090,0.0089,0.200445
4091,0.00891,0.200445
4092,0.00892,0.200445
4093,0.00893,0.200445
4094,0.00894,0.200445
4095,0.00895,0.200445
4096,0.00896,0.200445
4097,0.00897,0.200445
4098,0.00898,0.200445
4099,0.00899,0.200445
4100,0.009,0.200445
4101,0.00901,0.200445
4102,0.00902,0.200445
4103,0.00903,0.200445
4104,0.00904,0.200445
4105,0.00905,0.200445
4106,0.00906,0.200445
4107,0.00907,0.200445
4108,0.00908,0.200445
4109,0.00909,0.200445
4110,0.0091,0.200445
4111,0.00911,0.200445
4112,0.00912,0.200445
4113,0.00913,0.200445
4114,0.00914,0.200445
4115,0.00915,0.200445
4116,0.00916,0.200445
4117,0.00917,0.200445
4118,0.00918,0.200445
4119,0.00919,0.200445
4120,0.0092,0.200445
4121,0.00921,0.200445
4122,0.00922,0.200445
4123,0.00923,0.200445
4124,0.00924,0.200445
4125,0.00925,0.200445
4126,0.00926,0.200445
4127,0.00927,0.200445
4128,0.00928,0.200445
4129,0.00929,0.200445
4130,0.0093,0.200445
4131,0.00931,0.200445
4132,0.00932,0.200445
4133,0.00933,0.200445
4134,0.00934,0.200445
4135,0.00935,0.200445
4136,0.00936,0.200445
4137,0.00937,0.200445
4138,0.00938,0.200445
4139,0.00939,0.200445
4140,0.0094,0.200445
4141,0.00941,0.200445
4142,0.00942,0.200445
4143,0.00943,0.200445
4144,0.00944,0.200445
4145,0.00945,0.200445
4146,0.00946,0.200445
4147,0.00947,0.200445
4148,0.00948,0.200445
4149,0.00949,0.200445
4150,0.0095,0.200445
4151,0.00951,0.200445
4152,0.00952,0.200445
4153,0.00953,0.200445
4154,0.00954,0.200445
4155,0.00955,0.200445
4156,0.00956,0.200445
4157,0.00957,0.200445
4158,0.00958,0.200445
4159,0.00959,0.200445
4160,0.0096,0.200445
4161,0.00961,0.200445
4162,0.00962,0.200445
4163,0.00963,0.200445
4164,0.00964,0.200445
4165,0.00965,0.200445
4166,0.00966,0.200445
4167,0.00967,0.200445
4168,0.00968,0.200445
4169,0.00969,0.200445
4170,0.0097,0.200445
4171,0.00971,0.200445
4172,0.00972,0.200445
4173,0.00973,0.200445
4174,0.00974,0.200445
4175,0.00975,0.200445
4176,0.00976,0.200445
4177,0.00977,0.200445
4178,0.00978,0.200445
4179,0.00979,0.200445
4180,0.0098,0.200445
4181,0.00981,0.200445
4182,0.00982,0.200445
4183,0.00983,0.200445
4184,0.00984,0.200445
4185,0.00985,0.200445
4186,0.00986,0.200445
4187,0.00987,0.200445
4188,0.00988,0.200445
4189,0.00989,0.200445
4190,0.0099,0.200445
4191,0.00991,0.200445
4192,0.00992,0.200445
4193,0.00993,0.200445
4194,0.00994,0.200445
4195,0.00995,0.200445
4196,0.00996,0.200445
4197,0.00997,0.200445
4198,0.00998,0.200445
4199,0.00999,0.200445
4200,0.01,0.200445
4201,0.01001,0.200445
4202,0.01002,0.200445
4203,0.01003,0.200445
4204,0.01004,0.200445
4205,0.01005,0.200445
4206,0.01006,0.200445
4207,0.01007,0.200445
4208,0.01008,0.200445
4209,0.01009,0.200445
4210,0.0101,0.200445
4211,0.01011,0.200445
4212,0.01012,0.200445
4213,0.01013,0.200445
4214,0.01014,0.200445
4215,0.01015,0.200445
4216,0.01016,0.200445
4217,0.01017,0.200445
4218,0.01018,0.200445
4219,0.01019,0.200445
4220,0.0102,0.200445
4221,0.01021,0.200445
4222,0.01022,0.200445
4223,0.01023,0.200445
4224,0.01024,0.200445
4225,0.01025,0.200445
4226,0.01026,0.200445
4227,0.01027,0.200445
4228,0.01028,0.200445
4229,0.01029,0.200445
4230,0.0103,0.200445
4231,0.01031,0.200445
4232,0.01032,0.200445
4233,0.01033,0.200445
4234,0.01034,0.200445
4235,0.01035,0.200445
4236,0.01036,0.200445
4237,0.01037,0.200445
4238,0.01038,0.200445
4239,0.01039,0.200445
4240,0.0104,0.200445
4241,0.01041,0.200445
4242,0.01042,0.200445
4243,0.01043,0.200445
4244,0.01044,0.200445
4245,0.01045,0.200445
4246,0.01046,0.200445
4247,0.01047,0.200445
4248,0.01048,0.200445
4249,0.01049,0.200445
4250,0.0105,0.200445
4251,0.01051,0.200445
4252,0.01052,0.200445
4253,0.01053,0.200445
4254,0.01054,0.200445
4255,0.01055,0.200445
4256,0.01056,0.200445
4257,0.01057,0.200445
4258,0.01058,0.200445
4259,0.01059,0.200445
4260,0.0106,0.200445
4261,0.01061,0.200445
4262,0.01062,0.200445
4263,0.01063,0.200445
4264,0.01064,0.200445
4265,0.01065,0.200445
4266,0.01066,0.200445
4267,0.01067,0.200445
4268,0.01068,0.200445
4269,0.01069,0.200445
4270,0.0107,0.200445
4271,0.01071,0.200445
4272,0.01072,0.200445
4273,0.01073,0.200445
4274,0.01074,0.200445
4275,0.01075,0.200445
4276,0.01076,0.200445
4277,0.01077,0.200445
4278,0.01078,0.200445
4279,0.01079,0.200445
4280,0.0108,0.200445
4281,0.01081,0.200445
4282,0.01082,0.200445
4283,0.01083,0.200445
4284,0.01084,0.200445
4285,0.01085,0.200445
4286,0.01086,0.200445
4287,0.01087,0.200445
4288,0.01088,0.200445
4289,0.01089,0.200445
4290,0.0109,0.200445
4291,0.01091,0.200445
4292,0.01092,0.200445
4293,0.01093,0.200445
4294,0.01094,0.200445
4295,0.01095,0.200445
4296,0.01096,0.200445
4297,0.01097,0.200445
4298,0.01098,0.200445
4299,0.01099,0.200445
4300,0.011,0.200445
4301,0.01101,0.200445
4302,0.01102,0.200445
4303,0.01103,0.200445
4304,0.01104,0.200445
4305,0.01105,0.200445
4306,0.01106,0.200445
4307,0.01107,0.200445
4308,0.01108,0.200445
4309,0.01109,0.200445
4310,0.0111,0.200445
4311,0.01111,0.200445
4312,0.01112,0.200445
4313,0.01113,0.200445
4314,0.01114,0.200445
4315,0.01115,0.200445
4316,0.01116,0.200445
4317,0.01117,0.200445
4318,0.01118,0.200445
4319,0.01119,0.200445
4320,0.0112,0.200445
4321,0.01121,0.200445
4322,0.01122,0.200445
4323,0.01123,0.200445
4324,0.01124,0.200445
4325,0.01125,0.200445
4326,0.01126,0.200445
4327,0.01127,0.200445
4328,0.01128,0.200445
4329,0.01129,0.200445
4330,0.0113,0.200445
4331,0.01131,0.200445
4332,0.01132,0.200445
4333,0.01133,0.200445
4334,0.01134,0.200445
4335,0.01135,0.200445
4336,0.01136,0.200445
4337,0.01137,0.200445
4338,0.01138,0.200445
4339,0.01139,0.200445
4340,0.0114,0.200445
4341,0.01141,0.200445
4342,0.01142,0.200445
4343,0.01143,0.200445
4344,0.01144,0.200445
4345,0.01145,0.200445
4346,0.01146,0.200445
4347,0.01147,0.200445
4348,0.01148,0.200445
4349,0.01149,0.200445
4350,0.0115,0.200445
4351,0.01151,0.200445
4352,0.01152,0.200445
4353,0.01153,0.200445
4354,0.01154,0.200445
4355,0.01155,0.200445
4356,0.01156,0.200445
4357,0.01157,0.200445
4358,0.01158,0.200445
4359,0.01159,0.200445
4360,0.0116,0.200445
4361,0.01161,0.200445
4362,0.01162,0.200445
4363,0.01163,0.200445
4364,0.01164,0.200445
4365,0.01165,0.200445
4366,0.01166,0.200445
4367,0.01167,0.200445
4368,0.01168,0.200445
4369,0.01169,0.200445
4370,0.0117,0.200445
4371,0.01171,0.200445
4372,0.01172,0.200445
4373,0.01173,0.200445
4374,0.01174,0.200445
4375,0.01175,0.200445
4376,0.01176,0.200445
4377,0.01177,0.200445
4378,0.01178,0.200445
4379,0.01179,0.200445
4380,0.0118,0.200445
4381,0.01181,0.200445
4382,0.01182,0.200445
4383,0.01183,0.200445
4384,0.01184,0.200445
4385,0.01185,0.200445
4386,0.01186,0.200445
4387,0.01187,0.200445
4388,0.01188,0.200445
4389,0.01189,0.200445
4390,0.0119,0.200445
4391,0.01191,0.200445
4392,0.01192,0.200445
4393,0.01193,0.200445
4394,0.01194,0.200445
4395,0.01195,0.200445
4396,0.01196,0.200445
4397,0.01197,0.200445
4398,0.01198,0.200445
4399,0.01199,0.200445
4400,0.012,0.200445
4401,0.01201,0.200445
4402,0.01202,0.200445
4403,0.01203,0.200445
4404,0.01204,0.200445
4405,0.01205,0.200445
4406,0.01206,0.200445
4407,0.01207,0.200445
4408,0.01208,0.200445
4409,0.01209,0.200445
4410,0.0121,0.200445
4411,0.01211,0.200445
4412,0.01212,0.200445
4413,0.01213,0.200445
4414,0.01214,0.200445
4415,0.01215,0.200445
4416,0.01216,0.200445
4417,0.01217,0.200445
4418,0.01218,0.200445
4419,0.01219,0.200445
4420,0.0122,0.200445
4421,0.01221,0.200445
4422,0.01222,0.200445
4423,0.01223,0.200445
4424,0.01224,0.200445
4425,0.01225,0.200445
4426,0.01226,0.200445
4427,0.01227,0.200445
4428,0.01228,0.200445
4429,0.01229,0.200445
4430,0.0123,0.200445
4431,0.01231,0.200445
4432,0.01232,0.200445
4433,0.01233,0.200445
4434,0.01234,0.200445
4435,0.01235,0.200445
4436,0.01236,0.200445
4437,0.01237,0.200445
4438,0.01238,0.200445
4439,0.01239,0.200445
4440,0.0124,0.200445
4441,0.01241,0.200445
4442,0.01242,0.200445
4443,0.01243,0.200445
4444,0.01244,0.200445
4445,0.01245,0.200445
4446,0.01246,0.200445
4447,0.01247,0.200445
4448,0.01248,0.200445
4449,0.01249,0.200445
4450,0.0125,0.200445
4451,0.01251,0.200445
4452,0.01252,0.200445
4453,0.01253,0.200445
4454,0.01254,0.200445
4455,0.01255,0.200445
4456,0.01256,0.200445
4457,0.01257,0.200445
4458,0.01258,0.200445
4459,0.01259,0.200445
4460,0.0126,0.200445
4461,0.01261,0.200445
4462,0.01262,0.200445
4463,0.01263,0.200445
4464,0.01264,0.200445
4465,0.01265,0.200445
4466,0.01266,0.200445
4467,0.01267,0.200445
4468,0.01268,0.200445
4469,0.01269,0.200445
4470,0.0127,0.200445
4471,0.01271,0.200445
4472,0.01272,0.200445
4473,0.01273,0.200445
4474,0.01274,0.200445
4475,0.01275,0.200445
4476,0.01276,0.200445
4477,0.01277,0.200445
4478,0.01278,0.200445
4479,0.01279,0.200445
4480,0.0128,0.200445
4481,0.01281,0.200445
4482,0.01282,0.200445
4483,0.01283,0.200445
4484,0.01284,0.200445
4485,0.01285,0.200445
4486,0.01286,0.200445
4487,0.01287,0.200445
4488,0.01288,0.200445
4489,0.01289,0.200445
4490,0.0129,0.200445
4491,0.01291,0.200445
4492,0.01292,0.200445
4493,0.01293,0.200445
4494,0.01294,0.200445
4495,0.01295,0.200445
4496,0.01296,0.200445
4497,0.01297,0.200445
4498,0.01298,0.200445
4499,0.01299,0.200445
4500,0.013,0.200445
4501,0.01301,0.200445
4502,0.01302,0.200445
4503,0.01303,0.200445
4504,0.01304,0.200445
4505,0.01305,0.200445
4506,0.01306,0.200445
4507,0.01307,0.200445
4508,0.01308,0.200445
4509,0.01309,0.200445
4510,0.0131,0.200445
4511,0.01311,0.200445
4512,0.01312,0.200445
4513,0.01313,0.200445
4514,0.01314,0.200445
4515,0.01315,0.200445
4516,0.01316,0.200445
4517,0.01317,0.200445
4518,0.01318,0.200445
4519,0.01319,0.200445
4520,0.0132,0.200445
4521,0.01321,0.200445
4522,0.01322,0.200445
4523,0.01323,0.200445
4524,0.01324,0.200445
4525,0.01325,0.200445
4526,0.01326,0.200445
4527,0.01327,0.200445
4528,0.01328,0.200445
4529,0.01329,0.200445
4530,0.0133,0.200445
4531,0.01331,0.200445
4532,0.01332,0.200445
4533,0.01333,0.200445
4534,0.01334,0.200445
4535,0.01335,0.200445
4536,0.01336,0.200445
4537,0.01337,0.200445
4538,0.01338,0.200445
4539,0.01339,0.200445
4540,0.0134,0.200445
4541,0.01341,0.200445
4542,0.01342,0.200445
4543,0.01343,0.200445
4544,0.01344,0.200445
4545,0.01345,0.200445
4546,0.01346,0.200445
4547,0.01347,0.200445
4548,0.01348,0.200445
4549,0.01349,0.200445
4550,0.0135,0.200445
4551,0.01351,0.200445
4552,0.01352,0.200445
4553,0.01353,0.200445
4554,0.01354,0.200445
4555,0.01355,0.200445
4556,0.01356,0.200445
4557,0.01357,0.200445
4558,0.01358,0.200445
4559,0.01359,0.200445
4560,0.0136,0.200445
4561,0.01361,0.200445
4562,0.01362,0.200445
4563,0.01363,0.200445
4564,0.01364,0.200445
4565,0.01365,0.200445
4566,0.01366,0.200445
4567,0.01367,0.200445
4568,0.01368,0.200445
4569,0.01369,0.200445
4570,0.0137,0.200445
4571,0.01371,0.200445
4572,0.01372,0.200445
4573,0.01373,0.200445
4574,0.01374,0.200445
4575,0.01375,0.200445
4576,0.01376,0.200445
4577,0.01377,0.200445
4578,0.01378,0.200445
4579,0.01379,0.200445
4580,0.0138,0.200445
4581,0.01381,0.200445
4582,0.01382,0.200445
4583,0.01383,0.200445
4584,0.01384,0.200445
4585,0.01385,0.200445
4586,0.01386,0.183741
4587,0.01387,0.217148
4588,0.01388,0.317371
4589,0.01389,0.300667
4590,0.0139,4.64363
4591,0.01391,4.4766
4592,0.01392,4.61023
4593,0.01393,4.69375
4594,0.01394,4.79397
4595,0.01395,4.9443
4596,0.01396,5.07793
4597,0.01397,5.27838
4598,0.01398,5.49552
4599,0.01399,5.76278
4600,0.014,6.16367
4601,0.01401,5.97993
4602,0.01402,13.9309
4603,0.01403,14.3318
4604,0.01404,14.432
4605,0.01405,14.3986
4606,0.01406,14.3652
4607,0.01407,14.3318
4608,0.01408,14.2984
4609,0.01409,14.2817
4610,0.0141,14.2483
4611,0.01411,14.2316
4612,0.01412,14.2483
4613,0.01413,14.2149
4614,0.01414,14.2149
4615,0.01415,14.2149
4616,0.01416,14.2149
4617,0.01417,14.2149
4618,0.01418,14.2149
4619,0.01419,14.2149
4620,0.0142,14.2149
4621,0.01421,14.2149
4622,0.01422,14.2149
4623,0.01423,14.2149
4624,0.01424,14.2149
4625,0.01425,14.2149
4626,0.01426,14.2149
4627,0.01427,14.2149
4628,0.01428,14.2149
4629,0.01429,14.2149
4630,0.0143,14.2149
4631,0.01431,14.2149
4632,0.01432,14.2149
4633,0.01433,14.2149
4634,0.01434,14.2149
4635,0.01435,14.2149
4636,0.01436,14.2149
4637,0.01437,14.2149
4638,0.01438,14.2149
4639,0.01439,14.2149
4640,0.0144,14.2149
4641,0.01441,14.2149
4642,0.01442,14.2149
4643,0.01443,14.2149
4644,0.01444,14.2149
4645,0.01445,14.2149
4646,0.01446,14.2149
4647,0.01447,14.2149
4648,0.01448,14.2149
4649,0.01449,14.2149
4650,0.0145,14.2149
4651,0.01451,14.2149
4652,0.01452,14.2149
4653,0.01453,14.2149
4654,0.01454,14.2149
4655,0.01455,14.2149
4656,0.01456,14.2149
4657,0.01457,14.2149
4658,0.01458,14.2149
4659,0.01459,14.2149
4660,0.0146,14.2149
4661,0.01461,14.2149
4662,0.01462,14.2149
4663,0.01463,14.2149
4664,0.01464,14.2149
4665,0.01465,14.2149
4666,0.01466,14.2149
4667,0.01467,14.2149
4668,0.01468,14.2149
4669,0.01469,14.2149
4670,0.0147,14.2149
4671,0.01471,14.2149
4672,0.01472,14.2149
4673,0.01473,14.2149
4674,0.01474,14.2149
4675,0.01475,14.2149
4676,0.01476,14.2149
4677,0.01477,14.2149
4678,0.01478,14.2149
4679,0.01479,14.2149
4680,0.0148,14.2149
4681,0.01481,14.2149
4682,0.01482,14.2149
4683,0.01483,14.2149
4684,0.01484,14.2149
4685,0.01485,14.2149
4686,0.01486,14.2149
4687,0.01487,14.2149
4688,0.01488,14.2149
4689,0.01489,14.2149
4690,0.0149,14.2149
4691,0.01491,14.2149
4692,0.01492,14.2149
4693,0.01493,14.2149
4694,0.01494,14.2149
4695,0.01495,14.2149
4696,0.01496,14.2149
4697,0.01497,14.2149
4698,0.01498,14.2149
4699,0.01499,14.2149
4700,0.015,14.2149
4701,0.01501,14.2149
4702,0.01502,14.2149
4703,0.01503,14.2149
4704,0.01504,14.2149
4705,0.01505,14.2149
4706,0.01506,14.2149
4707,0.01507,14.2149
4708,0.01508,14.2149
4709,0.01509,14.2149
4710,0.0151,14.2149
4711,0.01511,14.2149
4712,0.01512,14.2149
4713,0.01513,14.2149
4714,0.01514,14.2149
4715,0.01515,14.2149
4716,0.01516,14.2149
4717,0.01517,14.1815
4718,0.01518,9.8552
4719,0.01519,-0.902001
4720,0.0152,-0.0835186
4721,0.01521,-0.0835186
4722,0.01522,-0.0334074
4723,0.01523,0.0334074
4724,0.01524,0.0668149
4725,0.01525,0.100222
4726,0.01526,0.13363
4727,0.01527,0.150333
4728,0.01528,0.183741
4729,0.01529,0.167037
4730,0.0153,0.200445
4731,0.01531,0.200445
4732,0.01532,0.200445
4733,0.01533,0.200445
4734,0.01534,0.217148
4735,0.01535,0.217148
4736,0.01536,0.217148
4737,0.01537,0.217148
4738,0.01538,0.217148
4739,0.01539,0.217148
4740,0.0154,0.200445
4741,0.01541,0.200445
4742,0.01542,0.200445
4743,0.01543,0.200445
4744,0.01544,0.200445
4745,0.01545,0.200445
4746,0.01546,0.200445
4747,0.01547,0.200445
4748,0.01548,0.200445
4749,0.01549,0.200445
4750,0.0155,0.200445
4751,0.01551,0.200445
4752,0.01552,0.200445
4753,0.01553,0.200445
4754,0.01554,0.183741
4755,0.01555,0.200445
4756,0.01556,0.200445
4757,0.01557,0.200445
4758,0.01558,0.200445
4759,0.01559,0.200445
4760,0.0156,0.200445
4761,0.01561,0.200445
4762,0.01562,0.200445
4763,0.01563,0.200445
4764,0.01564,0.200445
4765,0.01565,0.200445
4766,0.01566,0.200445
4767,0.01567,0.200445
4768,0.01568,0.200445
4769,0.01569,0.200445
4770,0.0157,0.200445
4771,0.01571,0.200445
4772,0.01572,0.200445
4773,0.01573,0.200445
4774,0.01574,0.200445
4775,0.01575,0.200445
4776,0.01576,0.200445
4777,0.01577,0.200445
4778,0.01578,0.200445
4779,0.01579,0.200445
4780,0.0158,0.200445
4781,0.01581,0.200445
4782,0.01582,0.200445
4783,0.01583,0.200445
4784,0.01584,0.200445
4785,0.01585,0.200445
4786,0.01586,0.200445
4787,0.01587,0.200445
4788,0.01588,0.200445
4789,0.01589,0.200445
4790,0.0159,0.200445
4791,0.01591,0.200445
4792,0.01592,0.200445
4793,0.01593,0.200445
4794,0.01594,0.200445
4795,0.01595,0.200445
4796,0.01596,0.200445
4797,0.01597,0.200445
4798,0.01598,0.200445
4799,0.01599,0.200445
4800,0.016,0.200445
4801,0.01601,0.200445
4802,0.01602,0.200445
4803,0.01603,0.200445
4804,0.01604,0.200445
4805,0.01605,0.200445
4806,0.01606,0.200445
4807,0.01607,0.200445
4808,0.01608,0.200445
4809,0.01609,0.200445
4810,0.0161,0.200445
4811,0.01611,0.200445
4812,0.01612,0.200445
4813,0.01613,0.200445
4814,0.01614,0.200445
4815,0.01615,0.200445
4816,0.01616,0.200445
4817,0.01617,0.200445
4818,0.01618,0.200445
4819,0.01619,0.200445
4820,0.0162,0.200445
4821,0.01621,0.200445
4822,0.01622,0.200445
4823,0.01623,0.200445
4824,0.01624,0.200445
4825,0.01625,0.200445
4826,0.01626,0.200445
4827,0.01627,0.200445
4828,0.01628,0.200445
4829,0.01629,0.200445
4830,0.0163,0.200445
4831,0.01631,0.200445
4832,0.01632,0.200445
4833,0.01633,0.200445
4834,0.01634,0.200445
4835,0.01635,0.200445
4836,0.01636,0.200445
4837,0.01637,0.200445
4838,0.01638,0.200445
4839,0.01639,0.200445
4840,0.0164,0.200445
4841,0.01641,0.200445
4842,0.01642,0.200445
4843,0.01643,0.200445
4844,0.01644,0.200445
4845,0.01645,0.200445
4846,0.01646,0.200445
4847,0.01647,0.200445
4848,0.01648,0.200445
4849,0.01649,0.200445
4850,0.0165,0.200445
4851,0.01651,0.200445
4852,0.01652,0.200445
4853,0.01653,0.200445
4854,0.01654,0.200445
4855,0.01655,0.200445
4856,0.01656,0.200445
4857,0.01657,0.200445
4858,0.01658,0.200445
4859,0.01659,0.200445
4860,0.0166,0.200445
4861,0.01661,0.200445
4862,0.01662,0.200445
4863,0.01663,0.200445
4864,0.01664,0.200445
4865,0.01665,0.200445
4866,0.01666,0.200445
4867,0.01667,0.200445
4868,0.01668,0.200445
4869,0.01669,0.200445
4870,0.0167,0.200445
4871,0.01671,0.200445
4872,0.01672,0.200445
4873,0.01673,0.200445
4874,0.01674,0.200445
4875,0.01675,0.200445
4876,0.01676,0.200445
4877,0.01677,0.200445
4878,0.01678,0.200445
4879,0.01679,0.200445
4880,0.0168,0.200445
4881,0.01681,0.200445
4882,0.01682,0.200445
4883,0.01683,0.200445
4884,0.01684,0.200445
4885,0.01685,0.200445
4886,0.01686,0.200445
4887,0.01687,0.200445
4888,0.01688,0.200445
4889,0.01689,0.200445
4890,0.0169,0.200445
4891,0.01691,0.200445
4892,0.01692,0.200445
4893,0.01693,0.200445
4894,0.01694,0.200445
4895,0.01695,0.200445
4896,0.01696,0.200445
4897,0.01697,0.200445
4898,0.01698,0.200445
4899,0.01699,0.200445
4900,0.017,0.200445
4901,0.01701,0.200445
4902,0.01702,0.200445
4903,0.01703,0.200445
4904,0.01704,0.200445
4905,0.01705,0.200445
4906,0.01706,0.200445
4907,0.01707,0.200445
4908,0.01708,0.200445
4909,0.01709,0.200445
4910,0.0171,0.200445
4911,0.01711,0.200445
4912,0.01712,0.200445
4913,0.01713,0.200445
4914,0.01714,0.200445
4915,0.01715,0.200445
4916,0.01716,0.200445
4917,0.01717,0.200445
4918,0.01718,0.200445
4919,0.01719,0.200445
4920,0.0172,0.200445
4921,0.01721,0.200445
4922,0.01722,0.200445
4923,0.01723,0.200445
4924,0.01724,0.200445
4925,0.01725,0.200445
4926,0.01726,0.200445
4927,0.01727,0.200445
4928,0.01728,0.200445
4929,0.01729,0.200445
4930,0.0173,0.200445
4931,0.01731,0.200445
4932,0.01732,0.200445
4933,0.01733,0.200445
4934,0.01734,0.200445
4935,0.01735,0.200445
4936,0.01736,0.200445
4937,0.01737,0.200445
4938,0.01738,0.200445
4939,0.01739,0.200445
4940,0.0174,0.200445
4941,0.01741,0.200445
4942,0.01742,0.200445
4943,0.01743,0.200445
4944,0.01744,0.200445
4945,0.01745,0.200445
4946,0.01746,0.200445
4947,0.01747,0.200445
4948,0.01748,0.200445
4949,0.01749,0.200445
4950,0.0175,0.200445
4951,0.01751,0.200445
4952,0.01752,0.200445
4953,0.01753,0.200445
4954,0.01754,0.200445
4955,0.01755,0.200445
4956,0.01756,0.200445
4957,0.01757,0.200445
4958,0.01758,0.200445
4959,0.01759,0.200445
4960,0.0176,0.200445
4961,0.01761,0.200445
4962,0.01762,0.200445
4963,0.01763,0.200445
4964,0.01764,0.200445
4965,0.01765,0.200445
4966,0.01766,0.200445
4967,0.01767,0.200445
4968,0.01768,0.200445
4969,0.01769,0.200445
4970,0.0177,0.200445
4971,0.01771,0.200445
4972,0.01772,0.200445
4973,0.01773,0.200445
4974,0.01774,0.200445
4975,0.01775,0.200445
4976,0.01776,0.200445
4977,0.01777,0.200445
4978,0.01778,0.200445
4979,0.01779,0.200445
4980,0.0178,0.200445
4981,0.01781,0.200445
4982,0.01782,0.200445
4983,0.01783,0.200445
4984,0.01784,0.200445
4985,0.01785,0.200445
4986,0.01786,0.200445
4987,0.01787,0.200445
4988,0.01788,0.200445
4989,0.01789,0.200445
4990,0.0179,0.200445
4991,0.01791,0.200445
4992,0.01792,0.200445
4993,0.01793,0.200445
4994,0.01794,0.200445
4995,0.01795,0.200445
4996,0.01796,0.200445
4997,0.01797,0.200445
4998,0.01798,0.200445
4999,0.01799,0.200445
5000,0.018,0.200445
5001,0.01801,0.200445
5002,0.01802,0.200445
5003,0.01803,0.200445
5004,0.01804,0.200445
5005,0.01805,0.200445
5006,0.01806,0.200445
5007,0.01807,0.200445
5008,0.01808,0.200445
5009,0.01809,0.200445
5010,0.0181,0.200445
5011,0.01811,0.200445
5012,0.01812,0.200445
5013,0.01813,0.200445
5014,0.01814,0.200445
5015,0.01815,0.200445
5016,0.01816,0.200445
5017,0.01817,0.200445
5018,0.01818,0.200445
5019,0.01819,0.200445
5020,0.0182,0.200445
5021,0.01821,0.200445
5022,0.01822,0.200445
5023,0.01823,0.200445
5024,0.01824,0.200445
5025,0.01825,0.200445
5026,0.01826,0.200445
5027,0.01827,0.200445
5028,0.01828,0.200445
5029,0.01829,0.200445
5030,0.0183,0.200445
5031,0.01831,0.200445
5032,0.01832,0.200445
5033,0.01833,0.200445
5034,0.01834,0.200445
5035,0.01835,0.200445
5036,0.01836,0.200445
5037,0.01837,0.200445
5038,0.01838,0.200445
5039,0.01839,0.200445
5040,0.0184,0.200445
5041,0.01841,0.200445
5042,0.01842,0.200445
5043,0.01843,0.200445
5044,0.01844,0.200445
5045,0.01845,0.200445
5046,0.01846,0.200445
5047,0.01847,0.200445
5048,0.01848,0.200445
5049,0.01849,0.200445
5050,0.0185,0.200445
5051,0.01851,0.200445
5052,0.01852,0.200445
5053,0.01853,0.200445
5054,0.01854,0.200445
5055,0.01855,0.200445
5056,0.01856,0.200445
5057,0.01857,0.200445
5058,0.01858,0.200445
5059,0.01859,0.200445
5060,0.0186,0.200445
5061,0.01861,0.200445
5062,0.01862,0.200445
5063,0.01863,0.200445
5064,0.01864,0.200445
5065,0.01865,0.200445
5066,0.01866,0.200445
5067,0.01867,0.200445
5068,0.01868,0.200445
5069,0.01869,0.200445
5070,0.0187,0.200445
5071,0.01871,0.200445
5072,0.01872,0.200445
5073,0.01873,0.200445
5074,0.01874,0.200445
5075,0.01875,0.200445
5076,0.01876,0.200445
5077,0.01877,0.200445
5078,0.01878,0.200445
5079,0.01879,0.200445
5080,0.0188,0.200445
5081,0.01881,0.200445
5082,0.01882,0.200445
5083,0.01883,0.200445
5084,0.01884,0.200445
5085,0.01885,0.200445
5086,0.01886,0.200445
5087,0.01887,0.200445
5088,0.01888,0.200445
5089,0.01889,0.200445
5090,0.0189,0.200445
5091,0.01891,0.200445
5092,0.01892,0.200445
5093,0.01893,0.200445
5094,0.01894,0.200445
5095,0.01895,0.200445
5096,0.01896,0.200445
5097,0.01897,0.200445
5098,0.01898,0.200445
5099,0.01899,0.200445
5100,0.019,0.200445
5101,0.01901,0.200445
5102,0.01902,0.200445
5103,0.01903,0.200445
5104,0.01904,0.200445
5105,0.01905,0.200445
5106,0.01906,0.200445
5107,0.01907,0.200445
5108,0.01908,0.200445
5109,0.01909,0.200445
5110,0.0191,0.200445
5111,0.01911,0.200445
5112,0.01912,0.200445
5113,0.01913,0.200445
5114,0.01914,0.200445
5115,0.01915,0.200445
5116,0.01916,0.200445
5117,0.01917,0.200445
5118,0.01918,0.200445
5119,0.01919,0.200445
5120,0.0192,0.200445
5121,0.01921,0.200445
5122,0.01922,0.200445
5123,0.01923,0.200445
5124,0.01924,0.200445
5125,0.01925,0.200445
5126,0.01926,0.200445
5127,0.01927,0.200445
5128,0.01928,0.200445
5129,0.01929,0.200445
5130,0.0193,0.200445
5131,0.01931,0.200445
5132,0.01932,0.200445
5133,0.01933,0.200445
5134,0.01934,0.200445
5135,0.01935,0.200445
5136,0.01936,0.200445
5137,0.01937,0.200445
5138,0.01938,0.200445
5139,0.01939,0.200445
5140,0.0194,0.200445
5141,0.01941,0.200445
5142,0.01942,0.200445
5143,0.01943,0.200445
5144,0.01944,0.200445
5145,0.01945,0.200445
5146,0.01946,0.200445
5147,0.01947,0.200445
5148,0.01948,0.200445
5149,0.01949,0.200445
5150,0.0195,0.200445
5151,0.01951,0.200445
5152,0.01952,0.200445
5153,0.01953,0.200445
5154,0.01954,0.200445
5155,0.01955,0.200445
5156,0.01956,0.200445
5157,0.01957,0.200445
5158,0.01958,0.200445
5159,0.01959,0.200445
5160,0.0196,0.200445
5161,0.01961,0.200445
5162,0.01962,0.200445
5163,0.01963,0.200445
5164,0.01964,0.200445
5165,0.01965,0.200445
5166,0.01966,0.200445
5167,0.01967,0.200445
5168,0.01968,0.200445
5169,0.01969,0.200445
5170,0.0197,0.200445
5171,0.01971,0.200445
5172,0.01972,0.200445
5173,0.01973,0.200445
5174,0.01974,0.200445
5175,0.01975,0.200445
5176,0.01976,0.200445
5177,0.01977,0.200445
5178,0.01978,0.200445
5179,0.01979,0.200445
5180,0.0198,0.200445
5181,0.01981,0.200445
5182,0.01982,0.200445
5183,0.01983,0.200445
5184,0.01984,0.200445
5185,0.01985,0.200445
5186,0.01986,0.200445
5187,0.01987,0.200445
5188,0.01988,0.200445
5189,0.01989,0.200445
5190,0.0199,0.200445
5191,0.01991,0.200445
5192,0.01992,0.200445
5193,0.01993,0.200445
5194,0.01994,0.200445
5195,0.01995,0.200445
5196,0.01996,0.200445
5197,0.01997,0.200445
5198,0.01998,0.200445
5199,0.01999,0.200445
5200,0.02,0.200445
5201,0.02001,0.200445
5202,0.02002,0.200445
5203,0.02003,0.200445
5204,0.02004,0.200445
5205,0.02005,0.200445
5206,0.02006,0.200445
5207,0.02007,0.200445
5208,0.02008,0.200445
5209,0.02009,0.200445
5210,0.0201,0.200445
5211,0.02011,0.200445
5212,0.02012,0.200445
5213,0.02013,0.200445
5214,0.02014,0.200445
5215,0.02015,0.200445
5216,0.02016,0.200445
5217,0.02017,0.200445
5218,0.02018,0.200445
5219,0.02019,0.200445
5220,0.0202,0.200445
5221,0.02021,0.200445
5222,0.02022,0.200445
5223,0.02023,0.200445
5224,0.02024,0.200445
5225,0.02025,0.200445
5226,0.02026,0.200445
5227,0.02027,0.200445
5228,0.02028,0.200445
5229,0.02029,0.200445
5230,0.0203,0.200445
5231,0.02031,0.200445
5232,0.02032,0.200445
5233,0.02033,0.200445
5234,0.02034,0.200445
5235,0.02035,0.200445
5236,0.02036,0.200445
5237,0.02037,0.200445
5238,0.02038,0.200445
5239,0.02039,0.200445
5240,0.0204,0.200445
5241,0.02041,0.200445
5242,0.02042,0.200445
5243,0.02043,0.200445
5244,0.02044,0.200445
5245,0.02045,0.200445
5246,0.02046,0.200445
5247,0.02047,0.200445
5248,0.02048,0.200445
5249,0.02049,0.200445
5250,0.0205,0.200445
5251,0.02051,0.200445
5252,0.02052,0.200445
5253,0.02053,0.200445
5254,0.02054,0.200445
5255,0.02055,0.200445
5256,0.02056,0.200445
5257,0.02057,0.200445
5258,0.02058,0.200445
5259,0.02059,0.200445
5260,0.0206,0.200445
5261,0.02061,0.200445
5262,0.02062,0.200445
5263,0.02063,0.200445
5264,0.02064,0.200445
5265,0.02065,0.200445
5266,0.02066,0.200445
5267,0.02067,0.200445
5268,0.02068,0.200445
5269,0.02069,0.200445
5270,0.0207,0.200445
5271,0.02071,0.200445
5272,0.02072,0.200445
5273,0.02073,0.200445
5274,0.02074,0.200445
5275,0.02075,0.200445
5276,0.02076,0.200445
5277,0.02077,0.200445
5278,0.02078,0.200445
5279,0.02079,0.200445
5280,0.0208,0.200445
5281,0.02081,0.200445
5282,0.02082,0.200445
5283,0.02083,0.200445
5284,0.02084,0.200445
5285,0.02085,0.200445
5286,0.02086,0.200445
5287,0.02087,0.200445
5288,0.02088,0.200445
5289,0.02089,0.200445
5290,0.0209,0.200445
5291,0.02091,0.200445
5292,0.02092,0.200445
5293,0.02093,0.200445
5294,0.02094,0.200445
5295,0.02095,0.200445
5296,0.02096,0.200445
5297,0.02097,0.200445
5298,0.02098,0.200445
5299,0.02099,0.200445
5300,0.021,0.200445
5301,0.02101,0.200445
5302,0.02102,0.200445
5303,0.02103,0.200445
5304,0.02104,0.200445
5305,0.02105,0.200445
5306,0.02106,0.200445
5307,0.02107,0.200445
5308,0.02108,0.200445
5309,0.02109,0.200445
5310,0.0211,0.200445
5311,0.02111,0.200445
5312,0.02112,0.200445
5313,0.02113,0.200445
5314,0.02114,0.200445
5315,0.02115,0.200445
5316,0.02116,0.200445
5317,0.02117,0.200445
5318,0.02118,0.200445
5319,0.02119,0.200445
5320,0.0212,0.200445
5321,0.02121,0.200445
5322,0.02122,0.200445
5323,0.02123,0.200445
5324,0.02124,0.200445
5325,0.02125,0.200445
5326,0.02126,0.200445
5327,0.02127,0.200445
5328,0.02128,0.200445
5329,0.02129,0.200445
5330,0.0213,0.200445
5331,0.02131,0.200445
5332,0.02132,0.200445
5333,0.02133,0.200445
5334,0.02134,0.200445
5335,0.02135,0.200445
5336,0.02136,0.200445
5337,0.02137,0.200445
5338,0.02138,0.200445
5339,0.02139,0.200445
5340,0.0214,0.200445
5341,0.02141,0.200445
5342,0.02142,0.200445
5343,0.02143,0.200445
5344,0.02144,0.200445
5345,0.02145,0.200445
5346,0.02146,0.200445
5347,0.02147,0.200445
5348,0.02148,0.200445
5349,0.02149,0.200445
5350,0.0215,0.200445
5351,0.02151,0.200445
5352,0.02152,0.200445
5353,0.02153,0.200445
5354,0.02154,0.200445
5355,0.02155,0.200445
5356,0.02156,0.200445
5357,0.02157,0.200445
5358,0.02158,0.200445
5359,0.02159,0.200445
5360,0.0216,0.200445
5361,0.02161,0.200445
5362,0.02162,0.200445
5363,0.02163,0.200445
5364,0.02164,0.200445
5365,0.02165,0.200445
5366,0.02166,0.200445
5367,0.02167,0.200445
5368,0.02168,0.200445
5369,0.02169,0.200445
5370,0.0217,0.200445
5371,0.02171,0.200445
5372,0.02172,0.200445
5373,0.02173,0.200445
5374,0.02174,0.200445
5375,0.02175,0.200445
5376,0.02176,0.200445
5377,0.02177,0.200445
5378,0.02178,0.200445
5379,0.02179,0.200445
5380,0.0218,0.200445
5381,0.02181,0.200445
5382,0.02182,0.200445
5383,0.02183,0.200445
5384,0.02184,0.200445
5385,0.02185,0.200445
5386,0.02186,0.200445
5387,0.02187,0.200445
5388,0.02188,0.200445
5389,0.02189,0.200445
5390,0.0219,0.200445
5391,0.02191,0.200445
5392,0.02192,0.200445
5393,0.02193,0.200445
5394,0.02194,0.200445
5395,0.02195,0.200445
5396,0.02196,0.200445
5397,0.02197,0.200445
5398,0.02198,0.200445
5399,0.02199,0.200445
5400,0.022,0.200445
5401,0.02201,0.200445
5402,0.02202,0.200445
5403,0.02203,0.200445
5404,0.02204,0.200445
5405,0.02205,0.200445
5406,0.02206,0.200445
5407,0.02207,0.200445
5408,0.02208,0.200445
5409,0.02209,0.200445
5410,0.0221,0.200445
5411,0.02211,0.200445
5412,0.02212,0.200445
5413,0.02213,0.200445
5414,0.02214,0.200445
5415,0.02215,0.200445
5416,0.02216,0.200445
5417,0.02217,0.200445
5418,0.02218,0.200445
5419,0.02219,0.200445
5420,0.0222,0.200445
5421,0.02221,0.200445
5422,0.02222,0.200445
5423,0.02223,0.200445
5424,0.02224,0.200445
5425,0.02225,0.200445
5426,0.02226,0.200445
5427,0.02227,0.200445
5428,0.02228,0.200445
5429,0.02229,0.200445
5430,0.0223,0.200445
5431,0.02231,0.200445
5432,0.02232,0.200445
5433,0.02233,0.200445
5434,0.02234,0.200445
5435,0.02235,0.200445
5436,0.02236,0.200445
5437,0.02237,0.200445
5438,0.02238,0.200445
5439,0.02239,0.200445
5440,0.0224,0.200445
5441,0.02241,0.200445
5442,0.02242,0.200445
5443,0.02243,0.200445
5444,0.02244,0.200445
5445,0.02245,0.200445
5446,0.02246,0.200445
5447,0.02247,0.200445
5448,0.02248,0.200445
5449,0.02249,0.200445
5450,0.0225,0.200445
5451,0.02251,0.200445
5452,0.02252,0.200445
5453,0.02253,0.200445
5454,0.02254,0.200445
5455,0.02255,0.200445
5456,0.02256,0.200445
5457,0.02257,0.200445
5458,0.02258,0.200445
5459,0.02259,0.200445
5460,0.0226,0.200445
5461,0.02261,0.200445
5462,0.02262,0.200445
5463,0.02263,0.200445
5464,0.02264,0.200445
5465,0.02265,0.200445
5466,0.02266,0.200445
5467,0.02267,0.200445
5468,0.02268,0.200445
5469,0.02269,0.200445
5470,0.0227,0.200445
5471,0.02271,0.200445
5472,0.02272,0.200445
5473,0.02273,0.200445
5474,0.02274,0.200445
5475,0.02275,0.200445
5476,0.02276,0.200445
5477,0.02277,0.200445
5478,0.02278,0.200445
5479,0.02279,0.200445
5480,0.0228,0.200445
5481,0.02281,0.200445
5482,0.02282,0.200445
5483,0.02283,0.200445
5484,0.02284,0.200445
5485,0.02285,0.200445
5486,0.02286,0.200445
5487,0.02287,0.200445
5488,0.02288,0.200445
5489,0.02289,0.200445
5490,0.0229,0.200445
5491,0.02291,0.200445
5492,0.02292,0.200445
5493,0.02293,0.200445
5494,0.02294,0.200445
5495,0.02295,0.200445
5496,0.02296,0.200445
5497,0.02297,0.200445
5498,0.02298,0.200445
5499,0.02299,0.200445
5500,0.023,0.200445
5501,0.02301,0.200445
5502,0.02302,0.200445
5503,0.02303,0.200445
5504,0.02304,0.200445
5505,0.02305,0.200445
5506,0.02306,0.200445
5507,0.02307,0.200445
5508,0.02308,0.200445
5509,0.02309,0.200445
5510,0.0231,0.200445
5511,0.02311,0.200445
5512,0.02312,0.200445
5513,0.02313,0.200445
5514,0.02314,0.200445
5515,0.02315,0.200445
5516,0.02316,0.200445
5517,0.02317,0.200445
5518,0.02318,0.200445
5519,0.02319,0.200445
5520,0.0232,0.200445
5521,0.02321,0.200445
5522,0.02322,0.200445
5523,0.02323,0.200445
5524,0.02324,0.200445
5525,0.02325,0.200445
5526,0.02326,0.200445
5527,0.02327,0.200445
5528,0.02328,0.200445
5529,0.02329,0.200445
5530,0.0233,0.200445
5531,0.02331,0.200445
5532,0.02332,0.200445
5533,0.02333,0.200445
5534,0.02334,0.200445
5535,0.02335,0.200445
5536,0.02336,0.200445
5537,0.02337,0.200445
5538,0.02338,0.200445
5539,0.02339,0.200445
5540,0.0234,0.200445
5541,0.02341,0.200445
5542,0.02342,0.200445
5543,0.02343,0.200445
5544,0.02344,0.200445
5545,0.02345,0.200445
5546,0.02346,0.200445
5547,0.02347,0.200445
5548,0.02348,0.200445
5549,0.02349,0.200445
5550,0.0235,0.200445
5551,0.02351,0.200445
5552,0.02352,0.200445
5553,0.02353,0.200445
5554,0.02354,0.200445
5555,0.02355,0.200445
5556,0.02356,0.200445
5557,0.02357,0.200445
5558,0.02358,0.200445
5559,0.02359,0.200445
5560,0.0236,0.200445
5561,0.02361,0.200445
5562,0.02362,0.200445
5563,0.02363,0.200445
5564,0.02364,0.200445
5565,0.02365,0.200445
5566,0.02366,0.200445
5567,0.02367,0.200445
5568,0.02368,0.200445
5569,0.02369,0.200445
5570,0.0237,0.200445
5571,0.02371,0.200445
5572,0.02372,0.200445
5573,0.02373,0.200445
5574,0.02374,0.200445
5575,0.02375,0.200445
5576,0.02376,0.200445
5577,0.02377,0.200445
5578,0.02378,0.200445
5579,0.02379,0.200445
5580,0.0238,0.200445
5581,0.02381,0.200445
5582,0.02382,0.200445
5583,0.02383,0.200445
5584,0.02384,0.200445
5585,0.02385,0.200445
5586,0.02386,0.200445
5587,0.02387,0.200445
5588,0.02388,0.200445
5589,0.02389,0.200445
5590,0.0239,0.200445
5591,0.02391,0.200445
5592,0.02392,0.200445
5593,0.02393,0.200445
5594,0.02394,0.200445
5595,0.02395,0.200445
5596,0.02396,0.200445
5597,0.02397,0.200445
5598,0.02398,0.200445
5599,0.02399,0.200445
5600,0.024,0.200445
5601,0.02401,0.200445
5602,0.02402,0.200445
5603,0.02403,0.200445
5604,0.02404,0.200445
5605,0.02405,0.200445
5606,0.02406,0.200445
5607,0.02407,0.200445
5608,0.02408,0.200445
5609,0.02409,0.200445
5610,0.0241,0.200445
5611,0.02411,0.200445
5612,0.02412,0.200445
5613,0.02413,0.200445
5614,0.02414,0.200445
5615,0.02415,0.200445
5616,0.02416,0.200445
5617,0.02417,0.200445
5618,0.02418,0.200445
5619,0.02419,0.200445
5620,0.0242,0.200445
5621,0.02421,0.200445
5622,0.02422,0.200445
5623,0.02423,0.200445
5624,0.02424,0.200445
5625,0.02425,0.200445
5626,0.02426,0.200445
5627,0.02427,0.200445
5628,0.02428,0.200445
5629,0.02429,0.200445
5630,0.0243,0.200445
5631,0.02431,0.200445
5632,0.02432,0.200445
5633,0.02433,0.200445
5634,0.02434,0.200445
5635,0.02435,0.200445
5636,0.02436,0.200445
5637,0.02437,0.200445
5638,0.02438,0.200445
5639,0.02439,0.200445
5640,0.0244,0.200445
5641,0.02441,0.200445
5642,0.02442,0.200445
5643,0.02443,0.200445
5644,0.02444,0.200445
5645,0.02445,0.200445
5646,0.02446,0.200445
5647,0.02447,0.200445
5648,0.02448,0.200445
5649,0.02449,0.200445
5650,0.0245,0.200445
5651,0.02451,0.200445
5652,0.02452,0.200445
5653,0.02453,0.200445
5654,0.02454,0.200445
5655,0.02455,0.200445
5656,0.02456,0.200445
5657,0.02457,0.200445
5658,0.02458,0.200445
5659,0.02459,0.200445
5660,0.0246,0.200445
5661,0.02461,0.200445
5662,0.02462,0.200445
5663,0.02463,0.200445
5664,0.02464,0.200445
5665,0.02465,0.200445
5666,0.02466,0.200445
5667,0.02467,0.200445
5668,0.02468,0.200445
5669,0.02469,0.200445
5670,0.0247,0.200445
5671,0.02471,0.200445
5672,0.02472,0.200445
5673,0.02473,0.200445
5674,0.02474,0.200445
5675,0.02475,0.200445
5676,0.02476,0.200445
5677,0.02477,0.200445
5678,0.02478,0.200445
5679,0.02479,0.200445
5680,0.0248,0.200445
5681,0.02481,0.200445
5682,0.02482,0.200445
5683,0.02483,0.200445
5684,0.02484,0.200445
5685,0.02485,0.200445
5686,0.02486,0.200445
5687,0.02487,0.200445
5688,0.02488,0.200445
5689,0.02489,0.200445
5690,0.0249,0.200445
5691,0.02491,0.200445
5692,0.02492,0.200445
5693,0.02493,0.200445
5694,0.02494,0.200445
5695,0.02495,0.200445
5696,0.02496,0.200445
5697,0.02497,0.200445
5698,0.02498,0.200445
5699,0.02499,0.200445
5700,0.025,0.200445
5701,0.02501,0.200445
5702,0.02502,0.200445
5703,0.02503,0.200445
5704,0.02504,0.200445
5705,0.02505,0.200445
5706,0.02506,0.200445
5707,0.02507,0.200445
5708,0.02508,0.200445
5709,0.02509,0.200445
5710,0.0251,0.200445
5711,0.02511,0.200445
5712,0.02512,0.200445
5713,0.02513,0.200445
5714,0.02514,0.200445
5715,0.02515,0.200445
5716,0.02516,0.200445
5717,0.02517,0.200445
5718,0.02518,0.200445
5719,0.02519,0.200445
5720,0.0252,0.200445
5721,0.02521,0.200445
5722,0.02522,0.200445
5723,0.02523,0.200445
5724,0.02524,0.200445
5725,0.02525,0.200445
5726,0.02526,0.200445
5727,0.02527,0.200445
5728,0.02528,0.200445
5729,0.02529,0.200445
5730,0.0253,0.200445
5731,0.02531,0.200445
5732,0.02532,0.200445
5733,0.02533,0.200445
5734,0.02534,0.200445
5735,0.02535,0.200445
5736,0.02536,0.200445
5737,0.02537,0.200445
5738,0.02538,0.200445
5739,0.02539,0.200445
5740,0.0254,0.200445
5741,0.02541,0.200445
5742,0.02542,0.200445
5743,0.02543,0.200445
5744,0.02544,0.200445
5745,0.02545,0.200445
5746,0.02546,0.200445
5747,0.02547,0.200445
5748,0.02548,0.200445
5749,0.02549,0.200445
5750,0.0255,0.200445
5751,0.02551,0.200445
5752,0.02552,0.200445
5753,0.02553,0.200445
5754,0.02554,0.200445
5755,0.02555,0.200445
5756,0.02556,0.200445
5757,0.02557,0.200445
5758,0.02558,0.200445
5759,0.02559,0.200445
5760,0.0256,0.200445
5761,0.02561,0.200445
5762,0.02562,0.200445
5763,0.02563,0.200445
5764,0.02564,0.200445
5765,0.02565,0.200445
5766,0.02566,0.200445
5767,0.02567,0.200445
5768,0.02568,0.200445
5769,0.02569,0.200445
5770,0.0257,0.200445
5771,0.02571,0.200445
5772,0.02572,0.200445
5773,0.02573,0.200445
5774,0.02574,0.200445
5775,0.02575,0.200445
5776,0.02576,0.200445
5777,0.02577,0.200445
5778,0.02578,0.200445
5779,0.02579,0.200445
5780,0.0258,0.200445
5781,0.02581,0.200445
5782,0.02582,0.200445
5783,0.02583,0.200445
5784,0.02584,0.200445
5785,0.02585,0.200445
5786,0.02586,0.200445
5787,0.02587,0.200445
5788,0.02588,0.200445
5789,0.02589,0.200445
5790,0.0259,0.200445
5791,0.02591,0.200445
5792,0.02592,0.200445
5793,0.02593,0.200445
5794,0.02594,0.200445
5795,0.02595,0.200445
5796,0.02596,0.200445
5797,0.02597,0.200445
5798,0.02598,0.200445
5799,0.02599,0.200445
5800,0.026,0.200445
5801,0.02601,0.200445
5802,0.02602,0.200445
5803,0.02603,0.200445
5804,0.02604,0.200445
5805,0.02605,0.200445
5806,0.02606,0.200445
5807,0.02607,0.200445
5808,0.02608,0.200445
5809,0.02609,0.200445
5810,0.0261,0.200445
5811,0.02611,0.200445
5812,0.02612,0.200445
5813,0.02613,0.200445
5814,0.02614,0.200445
5815,0.02615,0.200445
5816,0.02616,0.200445
5817,0.02617,0.200445
5818,0.02618,0.200445
5819,0.02619,0.200445
5820,0.0262,0.200445
5821,0.02621,0.200445
5822,0.02622,0.200445
5823,0.02623,0.200445
5824,0.02624,0.200445
5825,0.02625,0.200445
5826,0.02626,0.200445
5827,0.02627,0.200445
5828,0.02628,0.200445
5829,0.02629,0.200445
5830,0.0263,0.200445
5831,0.02631,0.200445
5832,0.02632,0.200445
5833,0.02633,0.200445
5834,0.02634,0.200445
5835,0.02635,0.200445
5836,0.02636,0.200445
5837,0.02637,0.200445
5838,0.02638,0.200445
5839,0.02639,0.200445
5840,0.0264,0.200445
5841,0.02641,0.200445
5842,0.02642,0.200445
5843,0.02643,0.200445
5844,0.02644,0.200445
5845,0.02645,0.200445
5846,0.02646,0.200445
5847,0.02647,0.200445
5848,0.02648,0.200445
5849,0.02649,0.200445
5850,0.0265,0.200445
5851,0.02651,0.200445
5852,0.02652,0.200445
5853,0.02653,0.200445
5854,0.02654,0.200445
5855,0.02655,0.200445
5856,0.02656,0.200445
5857,0.02657,0.200445
5858,0.02658,0.200445
5859,0.02659,0.200445
5860,0.0266,0.200445
5861,0.02661,0.200445
5862,0.02662,0.200445
5863,0.02663,0.200445
5864,0.02664,0.200445
5865,0.02665,0.200445
5866,0.02666,0.200445
5867,0.02667,0.200445
5868,0.02668,0.200445
5869,0.02669,0.200445
5870,0.0267,0.200445
5871,0.02671,0.200445
5872,0.02672,0.200445
5873,0.02673,0.200445
5874,0.02674,0.200445
5875,0.02675,0.200445
5876,0.02676,0.200445
5877,0.02677,0.200445
5878,0.02678,0.200445
5879,0.02679,0.200445
5880,0.0268,0.200445
5881,0.02681,0.200445
5882,0.02682,0.200445
5883,0.02683,0.200445
5884,0.02684,0.200445
5885,0.02685,0.200445
5886,0.02686,0.200445
5887,0.02687,0.200445
5888,0.02688,0.200445
5889,0.02689,0.200445
5890,0.0269,0.200445
5891,0.02691,0.200445
5892,0.02692,0.200445
5893,0.02693,0.200445
5894,0.02694,0.200445
5895,0.02695,0.200445
5896,0.02696,0.200445
5897,0.02697,0.200445
5898,0.02698,0.200445
5899,0.02699,0.200445
5900,0.027,0.200445
5901,0.02701,0.200445
5902,0.02702,0.200445
5903,0.02703,0.200445
5904,0.02704,0.200445
5905,0.02705,0.200445
5906,0.02706,0.200445
5907,0.02707,0.200445
5908,0.02708,0.200445
5909,0.02709,0.200445
5910,0.0271,0.200445
5911,0.02711,0.200445
5912,0.02712,0.200445
5913,0.02713,0.200445
5914,0.02714,0.200445
5915,0.02715,0.200445
5916,0.02716,0.200445
5917,0.02717,0.200445
5918,0.02718,0.200445
5919,0.02719,0.200445
5920,0.0272,0.200445
5921,0.02721,0.200445
5922,0.02722,0.200445
5923,0.02723,0.200445
5924,0.02724,0.200445
5925,0.02725,0.200445
5926,0.02726,0.200445
5927,0.02727,0.200445
5928,0.02728,0.200445
5929,0.02729,0.200445
5930,0.0273,0.200445
5931,0.02731,0.200445
5932,0.02732,0.200445
5933,0.02733,0.200445
5934,0.02734,0.200445
5935,0.02735,0.200445
5936,0.02736,0.200445
5937,0.02737,0.200445
5938,0.02738,0.200445
5939,0.02739,0.200445
5940,0.0274,0.200445
5941,0.02741,0.200445
5942,0.02742,0.200445
5943,0.02743,0.200445
5944,0.02744,0.200445
5945,0.02745,0.200445
5946,0.02746,0.200445
5947,0.02747,0.200445
5948,0.02748,0.200445
5949,0.02749,0.200445
5950,0.0275,0.200445
5951,0.02751,0.200445
5952,0.02752,0.200445
5953,0.02753,0.200445
5954,0.02754,0.200445
5955,0.02755,0.200445
5956,0.02756,0.200445
5957,0.02757,0.200445
5958,0.02758,0.200445
5959,0.02759,0.200445
5960,0.0276,0.200445
5961,0.02761,0.200445
5962,0.02762,0.200445
5963,0.02763,0.200445
5964,0.02764,0.200445
5965,0.02765,0.200445
5966,0.02766,0.200445
5967,0.02767,0.200445
5968,0.02768,0.200445
5969,0.02769,0.200445
5970,0.0277,0.200445
5971,0.02771,0.200445
5972,0.02772,0.200445
5973,0.02773,0.200445
5974,0.02774,0.200445
5975,0.02775,0.200445
5976,0.02776,0.200445
5977,0.02777,0.200445
5978,0.02778,0.200445
5979,0.02779,0.200445
5980,0.0278,0.200445
5981,0.02781,0.200445
5982,0.02782,0.200445
5983,0.02783,0.200445
5984,0.02784,0.200445
5985,0.02785,0.200445
5986,0.02786,0.200445
5987,0.02787,0.200445
5988,0.02788,0.200445
5989,0.02789,0.200445
5990,0.0279,0.200445
5991,0.02791,0.200445
5992,0.02792,0.200445
5993,0.02793,0.200445
5994,0.02794,0.200445
5995,0.02795,0.200445
5996,0.02796,0.200445
5997,0.02797,0.200445
5998,0.02798,0.200445
5999,0.02799,0.200445
6000,0.028,0.200445
6001,0.02801,0.200445
6002,0.02802,0.200445
6003,0.02803,0.200445
6004,0.02804,0.200445
6005,0.02805,0.200445
6006,0.02806,0.200445
6007,0.02807,0.200445
6008,0.02808,0.200445
6009,0.02809,0.200445
6010,0.0281,0.200445
6011,0.02811,0.200445
6012,0.02812,0.200445
6013,0.02813,0.200445
6014,0.02814,0.200445
6015,0.02815,0.200445
6016,0.02816,0.200445
6017,0.02817,0.200445
6018,0.02818,0.200445
6019,0.02819,0.200445
6020,0.0282,0.200445
6021,0.02821,0.200445
6022,0.02822,0.200445
6023,0.02823,0.200445
6024,0.02824,0.200445
6025,0.02825,0.200445
6026,0.02826,0.200445
6027,0.02827,0.200445
6028,0.02828,0.200445
6029,0.02829,0.200445
6030,0.0283,0.200445
6031,0.02831,0.200445
6032,0.02832,0.200445
6033,0.02833,0.200445
6034,0.02834,0.200445
6035,0.02835,0.200445
6036,0.02836,0.200445
6037,0.02837,0.200445
6038,0.02838,0.200445
6039,0.02839,0.200445
6040,0.0284,0.200445
6041,0.02841,0.200445
6042,0.02842,0.200445
6043,0.02843,0.200445
6044,0.02844,0.200445
6045,0.02845,0.200445
6046,0.02846,0.200445
6047,0.02847,0.200445
6048,0.02848,0.200445
6049,0.02849,0.200445
6050,0.0285,0.200445
6051,0.02851,0.200445
6052,0.02852,0.200445
6053,0.02853,0.200445
6054,0.02854,0.200445
6055,0.02855,0.200445
6056,0.02856,0.200445
6057,0.02857,0.200445
6058,0.02858,0.200445
6059,0.02859,0.200445
6060,0.0286,0.200445
6061,0.02861,0.200445
6062,0.02862,0.200445
6063,0.02863,0.200445
6064,0.02864,0.200445
6065,0.02865,0.200445
6066,0.02866,0.200445
6067,0.02867,0.200445
6068,0.02868,0.200445
6069,0.02869,0.200445
6070,0.0287,0.200445
6071,0.02871,0.200445
6072,0.02872,0.200445
6073,0.02873,0.200445
6074,0.02874,0.200445
6075,0.02875,0.200445
6076,0.02876,0.200445
6077,0.02877,0.200445
6078,0.02878,0.200445
6079,0.02879,0.200445
6080,0.0288,0.200445
6081,0.02881,0.200445
6082,0.02882,0.200445
6083,0.02883,0.200445
6084,0.02884,0.200445
6085,0.02885,0.200445
6086,0.02886,0.200445
6087,0.02887,0.200445
6088,0.02888,0.200445
6089,0.02889,0.200445
6090,0.0289,0.200445
6091,0.02891,0.200445
6092,0.02892,0.200445
6093,0.02893,0.200445
6094,0.02894,0.200445
6095,0.02895,0.200445
6096,0.02896,0.200445
6097,0.02897,0.200445
6098,0.02898,0.200445
6099,0.02899,0.200445
6100,0.029,0.200445
6101,0.02901,0.200445
6102,0.02902,0.200445
6103,0.02903,0.200445
6104,0.02904,0.200445
6105,0.02905,0.200445
6106,0.02906,0.200445
6107,0.02907,0.200445
6108,0.02908,0.200445
6109,0.02909,0.200445
6110,0.0291,0.317371
6111,0.02911,0.367482
6112,0.02912,4.69375
6113,0.02913,4.4766
6114,0.02914,4.61023
6115,0.02915,4.69375
6116,0.02916,4.81067
6117,0.02917,4.9443
6118,0.02918,5.07793
6119,0.02919,5.26167
6120,0.0292,5.52893
6121,0.02921,5.77949
6122,0.02922,6.16367
6123,0.02923,6.01334
6124,0.02924,14.0645
6125,0.02925,14.3151
6126,0.02926,14.432
6127,0.02927,14.3986
6128,0.02928,14.3652
6129,0.02929,14.3318
6130,0.0293,14.2984
6131,0.02931,14.2817
6132,0.02932,14.2483
6133,0.02933,14.2483
6134,0.02934,14.2316
6135,0.02935,14.2316
6136,0.02936,14.2149
6137,0.02937,14.2149
6138,0.02938,14.2149
6139,0.02939,14.2149
6140,0.0294,14.2149
6141,0.02941,14.2149
6142,0.02942,14.2149
6143,0.02943,14.2149
6144,0.02944,14.2149
6145,0.02945,14.2149
6146,0.02946,14.2149
6147,0.02947,14.2149
6148,0.02948,14.2149
6149,0.02949,14.2149
6150,0.0295,14.2149
6151,0.02951,14.2149
6152,0.02952,14.2149
6153,0.02953,14.2149
6154,0.02954,14.2149
6155,0.02955,14.2149
6156,0.02956,14.2149
6157,0.02957,14.2149
6158,0.02958,14.2149
6159,0.02959,14.2149
6160,0.0296,14.2149
6161,0.02961,14.2149
6162,0.02962,14.2149
6163,0.02963,14.2149
6164,0.02964,14.2149
6165,0.02965,14.2149
6166,0.02966,14.2149
6167,0.02967,14.2149
6168,0.02968,14.2149
6169,0.02969,14.2149
6170,0.0297,14.2149
6171,0.02971,14.2149
6172,0.02972,14.2149
6173,0.02973,14.2149
6174,0.02974,14.2149
6175,0.02975,14.2149
6176,0.02976,14.2149
6177,0.02977,14.2149
6178,0.02978,14.2149
6179,0.02979,14.2149
6180,0.0298,14.2149
6181,0.02981,14.2149
6182,0.02982,14.2149
6183,0.02983,14.2149
6184,0.02984,14.2149
6185,0.02985,14.2149
6186,0.02986,14.2149
6187,0.02987,14.2149
6188,0.02988,14.2149
6189,0.02989,14.2149
6190,0.0299,14.2149
6191,0.02991,14.2149
6192,0.02992,14.2149
6193,0.02993,14.2149
6194,0.02994,14.2149
6195,0.02995,14.2149
6196,0.02996,14.2149
6197,0.02997,14.2149
6198,0.02998,14.2149
6199,0.02999,14.2149
6200,0.03,14.2149
6201,0.03001,14.2149
6202,0.03002,14.2149
6203,0.03003,14.2149
6204,0.03004,14.2149
6205,0.03005,14.2149
6206,0.03006,14.2149
6207,0.03007,14.2149
6208,0.03008,14.2149
6209,0.03009,14.2149
6210,0.0301,14.2149
6211,0.03011,14.2149
6212,0.03012,14.2149
6213,0.03013,14.2149
6214,0.03014,14.2149
6215,0.03015,14.2149
6216,0.03016,14.2149
6217,0.03017,14.2149
6218,0.03018,14.2149
6219,0.03019,14.2149
6220,0.0302,14.2149
6221,0.03021,14.2149
6222,0.03022,14.2149
6223,0.03023,14.2149
6224,0.03024,14.2149
6225,0.03025,14.2149
6226,0.03026,14.2149
6227,0.03027,14.2149
6228,0.03028,14.2149
6229,0.03029,14.2149
6230,0.0303,14.2149
6231,0.03031,14.2149
6232,0.03032,14.2149
6233,0.03033,14.2149
6234,0.03034,14.2149
6235,0.03035,14.2149
6236,0.03036,14.2149
6237,0.03037,14.2149
6238,0.03038,14.2149
6239,0.03039,13.9643
6240,0.0304,14.6993
6241,0.03041,-0.400889
6242,0.03042,0.100222
6243,0.03043,-0.100222
6244,0.03044,-0.0501112
6245,0.03045,0.0167037
6246,0.03046,0.0501112
6247,0.03047,0.100222
6248,0.03048,0.13363
6249,0.03049,0.167037
6250,0.0305,0.167037
6251,0.03051,0.183741
6252,0.03052,0.183741
6253,0.03053,0.183741
6254,0.03054,0.183741
6255,0.03055,0.217148
6256,0.03056,0.217148
6257,0.03057,0.217148
6258,0.03058,0.217148
6259,0.03059,0.217148
6260,0.0306,0.217148
6261,0.03061,0.217148
6262,0.03062,0.200445
6263,0.03063,0.200445
6264,0.03064,0.200445
6265,0.03065,0.200445
6266,0.03066,0.200445
6267,0.03067,0.200445
6268,0.03068,0.200445
6269,0.03069,0.200445
6270,0.0307,0.200445
6271,0.03071,0.200445
6272,0.03072,0.200445
6273,0.03073,0.200445
6274,0.03074,0.200445
6275,0.03075,0.200445
6276,0.03076,0.200445
6277,0.03077,0.200445
6278,0.03078,0.183741
6279,0.03079,0.217148
6280,0.0308,0.183741
6281,0.03081,0.200445
6282,0.03082,0.200445
6283,0.03083,0.200445
6284,0.03084,0.200445
6285,0.03085,0.200445
6286,0.03086,0.200445
6287,0.03087,0.200445
6288,0.03088,0.200445
6289,0.03089,0.200445
6290,0.0309,0.200445
6291,0.03091,0.200445
6292,0.03092,0.200445
6293,0.03093,0.200445
6294,0.03094,0.200445
6295,0.03095,0.200445
6296,0.03096,0.200445
6297,0.03097,0.200445
6298,0.03098,0.200445
6299,0.03099,0.200445
6300,0.031,0.200445
6301,0.03101,0.200445
6302,0.03102,0.200445
6303,0.03103,0.200445
6304,0.03104,0.200445
6305,0.03105,0.200445
6306,0.03106,0.200445
6307,0.03107,0.200445
6308,0.03108,0.200445
6309,0.03109,0.200445
6310,0.0311,0.200445
6311,0.03111,0.200445
6312,0.03112,0.200445
6313,0.03113,0.200445
6314,0.03114,0.200445
6315,0.03115,0.200445
6316,0.03116,0.200445
6317,0.03117,0.200445
6318,0.03118,0.200445
6319,0.03119,0.200445
6320,0.0312,0.200445
6321,0.03121,0.200445
6322,0.03122,0.200445
6323,0.03123,0.200445
6324,0.03124,0.200445
6325,0.03125,0.200445
6326,0.03126,0.200445
6327,0.03127,0.200445
6328,0.03128,0.200445
6329,0.03129,0.200445
6330,0.0313,0.200445
6331,0.03131,0.200445
6332,0.03132,0.200445
6333,0.03133,0.200445
6334,0.03134,0.200445
6335,0.03135,0.200445
6336,0.03136,0.200445
6337,0.03137,0.200445
6338,0.03138,0.200445
6339,0.03139,0.200445
6340,0.0314,0.200445
6341,0.03141,0.200445
6342,0.03142,0.200445
6343,0.03143,0.200445
6344,0.03144,0.200445
6345,0.03145,0.200445
6346,0.03146,0.200445
6347,0.03147,0.200445
6348,0.03148,0.200445
6349,0.03149,0.200445
6350,0.0315,0.200445
6351,0.03151,0.200445
6352,0.03152,0.200445
6353,0.03153,0.200445
6354,0.03154,0.200445
6355,0.03155,0.200445
6356,0.03156,0.200445
6357,0.03157,0.200445
6358,0.03158,0.200445
6359,0.03159,0.200445
6360,0.0316,0.200445
6361,0.03161,0.200445
6362,0.03162,0.200445
6363,0.03163,0.200445
6364,0.03164,0.200445
6365,0.03165,0.200445
6366,0.03166,0.200445
6367,0.03167,0.200445
6368,0.03168,0.200445
6369,0.03169,0.200445
6370,0.0317,0.200445
6371,0.03171,0.200445
6372,0.03172,0.200445
6373,0.03173,0.200445
6374,0.03174,0.200445
6375,0.03175,0.200445
6376,0.03176,0.200445
6377,0.03177,0.200445
6378,0.03178,0.200445
6379,0.03179,0.200445
6380,0.0318,0.200445
6381,0.03181,0.200445
6382,0.03182,0.200445
6383,0.03183,0.200445
6384,0.03184,0.200445
6385,0.03185,0.200445
6386,0.03186,0.200445
6387,0.03187,0.200445
6388,0.03188,0.200445
6389,0.03189,0.200445
6390,0.0319,0.200445
6391,0.03191,0.200445
6392,0.03192,0.200445
6393,0.03193,0.200445
6394,0.03194,0.200445
6395,0.03195,0.200445
6396,0.03196,0.200445
6397,0.03197,0.200445
6398,0.03198,0.200445
6399,0.03199,0.200445
