;Scopy version,f4beeb1
;Exported on,Wednesday May 15/05/2024
;Device,M2K
;Nr of samples,6400
;Sample rate,100000
;Tool,Oscilloscope
;Additional Information,
Sample,Time(S),CH1(V)
0,-0.032,7.88416
1,-0.03199,7.88416
2,-0.03198,7.88416
3,-0.03197,7.88416
4,-0.03196,7.88416
5,-0.03195,7.88416
6,-0.03194,7.88416
7,-0.03193,7.88416
8,-0.03192,7.88416
9,-0.03191,7.88416
10,-0.0319,7.88416
11,-0.03189,7.88416
12,-0.03188,7.88416
13,-0.03187,7.88416
14,-0.03186,7.88416
15,-0.03185,7.88416
16,-0.03184,7.88416
17,-0.03183,7.88416
18,-0.03182,7.88416
19,-0.03181,7.88416
20,-0.0318,7.88416
21,-0.03179,7.88416
22,-0.03178,7.88416
23,-0.03177,7.88416
24,-0.03176,7.88416
25,-0.03175,7.88416
26,-0.03174,7.88416
27,-0.03173,7.88416
28,-0.03172,7.88416
29,-0.03171,7.88416
30,-0.0317,7.88416
31,-0.03169,7.85075
32,-0.03168,7.83405
33,-0.03167,7.88416
34,-0.03166,7.88416
35,-0.03165,7.85075
36,-0.03164,7.88416
37,-0.03163,7.88416
38,-0.03162,7.88416
39,-0.03161,7.88416
40,-0.0316,7.85075
41,-0.03159,7.83405
42,-0.03158,7.83405
43,-0.03157,7.88416
44,-0.03156,7.88416
45,-0.03155,7.85075
46,-0.03154,7.88416
47,-0.03153,7.88416
48,-0.03152,7.88416
49,-0.03151,7.85075
50,-0.0315,7.85075
51,-0.03149,7.88416
52,-0.03148,7.88416
53,-0.03147,7.85075
54,-0.03146,7.85075
55,-0.03145,7.88416
56,-0.03144,7.88416
57,-0.03143,7.88416
58,-0.03142,7.88416
59,-0.03141,7.88416
60,-0.0314,7.88416
61,-0.03139,7.88416
62,-0.03138,7.88416
63,-0.03137,7.88416
64,-0.03136,7.88416
65,-0.03135,7.88416
66,-0.03134,7.88416
67,-0.03133,7.88416
68,-0.03132,7.88416
69,-0.03131,7.85075
70,-0.0313,7.88416
71,-0.03129,7.83405
72,-0.03128,7.88416
73,-0.03127,7.85075
74,-0.03126,7.88416
75,-0.03125,7.88416
76,-0.03124,7.88416
77,-0.03123,7.88416
78,-0.03122,7.88416
79,-0.03121,7.88416
80,-0.0312,7.88416
81,-0.03119,7.88416
82,-0.03118,7.85075
83,-0.03117,7.88416
84,-0.03116,7.83405
85,-0.03115,7.85075
86,-0.03114,7.85075
87,-0.03113,7.85075
88,-0.03112,7.85075
89,-0.03111,7.83405
90,-0.0311,7.88416
91,-0.03109,7.88416
92,-0.03108,7.88416
93,-0.03107,7.88416
94,-0.03106,7.83405
95,-0.03105,7.85075
96,-0.03104,7.88416
97,-0.03103,7.83405
98,-0.03102,7.88416
99,-0.03101,7.83405
100,-0.031,7.85075
101,-0.03099,7.85075
102,-0.03098,7.85075
103,-0.03097,7.85075
104,-0.03096,7.85075
105,-0.03095,7.85075
106,-0.03094,7.85075
107,-0.03093,7.85075
108,-0.03092,7.85075
109,-0.03091,7.85075
110,-0.0309,7.85075
111,-0.03089,7.85075
112,-0.03088,7.85075
113,-0.03087,7.85075
114,-0.03086,7.85075
115,-0.03085,7.85075
116,-0.03084,7.85075
117,-0.03083,7.85075
118,-0.03082,7.85075
119,-0.03081,7.85075
120,-0.0308,7.85075
121,-0.03079,7.85075
122,-0.03078,7.85075
123,-0.03077,7.85075
124,-0.03076,7.85075
125,-0.03075,7.88416
126,-0.03074,7.83405
127,-0.03073,7.85075
128,-0.03072,7.85075
129,-0.03071,7.85075
130,-0.0307,7.85075
131,-0.03069,7.85075
132,-0.03068,7.85075
133,-0.03067,7.85075
134,-0.03066,7.85075
135,-0.03065,7.85075
136,-0.03064,7.85075
137,-0.03063,7.85075
138,-0.03062,7.85075
139,-0.03061,7.85075
140,-0.0306,7.85075
141,-0.03059,7.85075
142,-0.03058,7.85075
143,-0.03057,7.85075
144,-0.03056,7.85075
145,-0.03055,7.85075
146,-0.03054,7.85075
147,-0.03053,7.85075
148,-0.03052,7.85075
149,-0.03051,7.85075
150,-0.0305,7.85075
151,-0.03049,7.85075
152,-0.03048,7.85075
153,-0.03047,7.85075
154,-0.03046,7.85075
155,-0.03045,7.85075
156,-0.03044,7.85075
157,-0.03043,7.85075
158,-0.03042,7.85075
159,-0.03041,7.85075
160,-0.0304,7.85075
161,-0.03039,7.85075
162,-0.03038,7.85075
163,-0.03037,7.85075
164,-0.03036,7.85075
165,-0.03035,7.85075
166,-0.03034,7.85075
167,-0.03033,7.85075
168,-0.03032,7.85075
169,-0.03031,7.85075
170,-0.0303,7.85075
171,-0.03029,7.85075
172,-0.03028,7.85075
173,-0.03027,7.85075
174,-0.03026,7.85075
175,-0.03025,7.85075
176,-0.03024,7.85075
177,-0.03023,7.85075
178,-0.03022,7.85075
179,-0.03021,7.85075
180,-0.0302,7.85075
181,-0.03019,7.85075
182,-0.03018,7.85075
183,-0.03017,7.85075
184,-0.03016,7.85075
185,-0.03015,7.85075
186,-0.03014,7.85075
187,-0.03013,7.85075
188,-0.03012,7.85075
189,-0.03011,7.85075
190,-0.0301,7.85075
191,-0.03009,7.85075
192,-0.03008,7.85075
193,-0.03007,7.85075
194,-0.03006,7.85075
195,-0.03005,7.85075
196,-0.03004,7.85075
197,-0.03003,7.85075
198,-0.03002,7.85075
199,-0.03001,7.85075
200,-0.03,7.85075
201,-0.02999,7.85075
202,-0.02998,7.85075
203,-0.02997,7.85075
204,-0.02996,7.85075
205,-0.02995,7.85075
206,-0.02994,7.85075
207,-0.02993,7.85075
208,-0.02992,7.85075
209,-0.02991,7.85075
210,-0.0299,7.85075
211,-0.02989,7.85075
212,-0.02988,7.85075
213,-0.02987,7.85075
214,-0.02986,7.85075
215,-0.02985,7.85075
216,-0.02984,7.85075
217,-0.02983,7.85075
218,-0.02982,7.85075
219,-0.02981,7.85075
220,-0.0298,7.85075
221,-0.02979,7.85075
222,-0.02978,7.85075
223,-0.02977,7.85075
224,-0.02976,7.85075
225,-0.02975,7.85075
226,-0.02974,7.85075
227,-0.02973,7.85075
228,-0.02972,7.85075
229,-0.02971,7.85075
230,-0.0297,7.85075
231,-0.02969,7.85075
232,-0.02968,7.85075
233,-0.02967,7.85075
234,-0.02966,7.85075
235,-0.02965,7.85075
236,-0.02964,7.85075
237,-0.02963,7.85075
238,-0.02962,7.85075
239,-0.02961,7.85075
240,-0.0296,7.85075
241,-0.02959,7.85075
242,-0.02958,7.85075
243,-0.02957,7.85075
244,-0.02956,7.85075
245,-0.02955,7.85075
246,-0.02954,7.85075
247,-0.02953,7.85075
248,-0.02952,7.85075
249,-0.02951,7.85075
250,-0.0295,7.85075
251,-0.02949,7.85075
252,-0.02948,7.85075
253,-0.02947,7.85075
254,-0.02946,7.85075
255,-0.02945,7.85075
256,-0.02944,7.85075
257,-0.02943,7.85075
258,-0.02942,7.85075
259,-0.02941,7.85075
260,-0.0294,7.85075
261,-0.02939,7.85075
262,-0.02938,7.85075
263,-0.02937,7.85075
264,-0.02936,7.85075
265,-0.02935,7.85075
266,-0.02934,7.85075
267,-0.02933,7.85075
268,-0.02932,7.85075
269,-0.02931,7.85075
270,-0.0293,7.85075
271,-0.02929,7.85075
272,-0.02928,7.85075
273,-0.02927,7.85075
274,-0.02926,7.85075
275,-0.02925,7.85075
276,-0.02924,7.85075
277,-0.02923,7.85075
278,-0.02922,7.85075
279,-0.02921,7.85075
280,-0.0292,7.85075
281,-0.02919,7.85075
282,-0.02918,7.85075
283,-0.02917,7.85075
284,-0.02916,7.85075
285,-0.02915,7.85075
286,-0.02914,7.85075
287,-0.02913,7.85075
288,-0.02912,7.85075
289,-0.02911,7.85075
290,-0.0291,7.85075
291,-0.02909,7.85075
292,-0.02908,7.85075
293,-0.02907,7.85075
294,-0.02906,7.85075
295,-0.02905,7.85075
296,-0.02904,7.85075
297,-0.02903,7.85075
298,-0.02902,7.85075
299,-0.02901,7.85075
300,-0.029,7.85075
301,-0.02899,7.85075
302,-0.02898,7.85075
303,-0.02897,7.85075
304,-0.02896,7.85075
305,-0.02895,7.85075
306,-0.02894,7.85075
307,-0.02893,7.85075
308,-0.02892,7.85075
309,-0.02891,7.85075
310,-0.0289,7.85075
311,-0.02889,7.85075
312,-0.02888,7.85075
313,-0.02887,7.85075
314,-0.02886,7.85075
315,-0.02885,7.85075
316,-0.02884,7.85075
317,-0.02883,7.85075
318,-0.02882,7.85075
319,-0.02881,7.85075
320,-0.0288,7.85075
321,-0.02879,7.85075
322,-0.02878,7.85075
323,-0.02877,7.85075
324,-0.02876,7.85075
325,-0.02875,7.85075
326,-0.02874,7.85075
327,-0.02873,7.85075
328,-0.02872,7.85075
329,-0.02871,7.85075
330,-0.0287,7.85075
331,-0.02869,7.85075
332,-0.02868,7.85075
333,-0.02867,7.85075
334,-0.02866,7.85075
335,-0.02865,7.85075
336,-0.02864,7.85075
337,-0.02863,7.85075
338,-0.02862,7.85075
339,-0.02861,7.85075
340,-0.0286,7.85075
341,-0.02859,7.85075
342,-0.02858,7.85075
343,-0.02857,7.85075
344,-0.02856,7.85075
345,-0.02855,7.85075
346,-0.02854,7.85075
347,-0.02853,7.85075
348,-0.02852,7.85075
349,-0.02851,7.85075
350,-0.0285,7.85075
351,-0.02849,7.83405
352,-0.02848,7.83405
353,-0.02847,7.85075
354,-0.02846,7.85075
355,-0.02845,7.85075
356,-0.02844,7.85075
357,-0.02843,7.85075
358,-0.02842,7.85075
359,-0.02841,7.83405
360,-0.0284,7.83405
361,-0.02839,7.83405
362,-0.02838,7.83405
363,-0.02837,7.83405
364,-0.02836,7.85075
365,-0.02835,7.81734
366,-0.02834,7.83405
367,-0.02833,7.83405
368,-0.02832,7.83405
369,-0.02831,7.83405
370,-0.0283,7.83405
371,-0.02829,7.83405
372,-0.02828,7.83405
373,-0.02827,7.83405
374,-0.02826,7.83405
375,-0.02825,7.81734
376,-0.02824,7.85075
377,-0.02823,7.81734
378,-0.02822,7.83405
379,-0.02821,7.83405
380,-0.0282,7.83405
381,-0.02819,7.83405
382,-0.02818,7.83405
383,-0.02817,7.83405
384,-0.02816,7.83405
385,-0.02815,7.83405
386,-0.02814,7.83405
387,-0.02813,7.83405
388,-0.02812,7.83405
389,-0.02811,7.83405
390,-0.0281,7.83405
391,-0.02809,7.83405
392,-0.02808,7.83405
393,-0.02807,7.83405
394,-0.02806,7.83405
395,-0.02805,7.83405
396,-0.02804,7.83405
397,-0.02803,7.83405
398,-0.02802,7.83405
399,-0.02801,7.83405
400,-0.028,7.83405
401,-0.02799,7.83405
402,-0.02798,7.83405
403,-0.02797,7.83405
404,-0.02796,7.83405
405,-0.02795,7.83405
406,-0.02794,7.83405
407,-0.02793,7.83405
408,-0.02792,7.83405
409,-0.02791,7.83405
410,-0.0279,7.83405
411,-0.02789,7.83405
412,-0.02788,7.83405
413,-0.02787,7.83405
414,-0.02786,7.83405
415,-0.02785,7.83405
416,-0.02784,7.83405
417,-0.02783,7.83405
418,-0.02782,7.83405
419,-0.02781,7.83405
420,-0.0278,7.83405
421,-0.02779,7.83405
422,-0.02778,7.83405
423,-0.02777,7.83405
424,-0.02776,7.83405
425,-0.02775,7.83405
426,-0.02774,7.83405
427,-0.02773,7.83405
428,-0.02772,7.83405
429,-0.02771,7.83405
430,-0.0277,7.83405
431,-0.02769,7.83405
432,-0.02768,7.83405
433,-0.02767,7.83405
434,-0.02766,7.83405
435,-0.02765,7.83405
436,-0.02764,7.83405
437,-0.02763,7.83405
438,-0.02762,7.83405
439,-0.02761,7.83405
440,-0.0276,7.83405
441,-0.02759,7.83405
442,-0.02758,7.83405
443,-0.02757,7.83405
444,-0.02756,7.83405
445,-0.02755,7.83405
446,-0.02754,7.83405
447,-0.02753,7.83405
448,-0.02752,7.83405
449,-0.02751,7.83405
450,-0.0275,7.83405
451,-0.02749,7.83405
452,-0.02748,7.83405
453,-0.02747,7.83405
454,-0.02746,7.83405
455,-0.02745,7.83405
456,-0.02744,7.83405
457,-0.02743,7.83405
458,-0.02742,7.83405
459,-0.02741,7.83405
460,-0.0274,7.83405
461,-0.02739,7.83405
462,-0.02738,7.83405
463,-0.02737,7.83405
464,-0.02736,7.83405
465,-0.02735,7.83405
466,-0.02734,7.83405
467,-0.02733,7.83405
468,-0.02732,7.83405
469,-0.02731,7.83405
470,-0.0273,7.83405
471,-0.02729,7.83405
472,-0.02728,7.83405
473,-0.02727,7.83405
474,-0.02726,7.83405
475,-0.02725,7.83405
476,-0.02724,7.83405
477,-0.02723,7.83405
478,-0.02722,7.83405
479,-0.02721,7.83405
480,-0.0272,7.83405
481,-0.02719,7.83405
482,-0.02718,7.83405
483,-0.02717,7.83405
484,-0.02716,7.83405
485,-0.02715,7.83405
486,-0.02714,7.83405
487,-0.02713,7.83405
488,-0.02712,7.83405
489,-0.02711,7.83405
490,-0.0271,7.83405
491,-0.02709,7.83405
492,-0.02708,7.83405
493,-0.02707,7.83405
494,-0.02706,7.83405
495,-0.02705,7.83405
496,-0.02704,7.83405
497,-0.02703,7.83405
498,-0.02702,7.83405
499,-0.02701,7.83405
500,-0.027,7.83405
501,-0.02699,7.83405
502,-0.02698,7.83405
503,-0.02697,7.83405
504,-0.02696,7.83405
505,-0.02695,7.83405
506,-0.02694,7.83405
507,-0.02693,7.83405
508,-0.02692,7.83405
509,-0.02691,7.83405
510,-0.0269,7.83405
511,-0.02689,7.83405
512,-0.02688,7.83405
513,-0.02687,7.83405
514,-0.02686,7.83405
515,-0.02685,7.83405
516,-0.02684,7.83405
517,-0.02683,7.83405
518,-0.02682,7.83405
519,-0.02681,7.83405
520,-0.0268,7.83405
521,-0.02679,7.83405
522,-0.02678,7.83405
523,-0.02677,7.83405
524,-0.02676,7.83405
525,-0.02675,7.83405
526,-0.02674,7.83405
527,-0.02673,7.83405
528,-0.02672,7.83405
529,-0.02671,7.83405
530,-0.0267,7.83405
531,-0.02669,7.83405
532,-0.02668,7.83405
533,-0.02667,7.83405
534,-0.02666,7.83405
535,-0.02665,7.83405
536,-0.02664,7.83405
537,-0.02663,7.83405
538,-0.02662,7.83405
539,-0.02661,7.83405
540,-0.0266,7.83405
541,-0.02659,7.83405
542,-0.02658,7.83405
543,-0.02657,7.83405
544,-0.02656,7.83405
545,-0.02655,7.83405
546,-0.02654,7.83405
547,-0.02653,7.83405
548,-0.02652,7.83405
549,-0.02651,7.83405
550,-0.0265,7.83405
551,-0.02649,7.83405
552,-0.02648,7.83405
553,-0.02647,7.83405
554,-0.02646,7.83405
555,-0.02645,7.83405
556,-0.02644,7.83405
557,-0.02643,7.83405
558,-0.02642,7.83405
559,-0.02641,7.83405
560,-0.0264,7.83405
561,-0.02639,7.83405
562,-0.02638,7.83405
563,-0.02637,7.83405
564,-0.02636,7.83405
565,-0.02635,7.83405
566,-0.02634,7.83405
567,-0.02633,7.83405
568,-0.02632,7.83405
569,-0.02631,7.83405
570,-0.0263,7.83405
571,-0.02629,7.83405
572,-0.02628,7.83405
573,-0.02627,7.83405
574,-0.02626,7.83405
575,-0.02625,7.83405
576,-0.02624,7.83405
577,-0.02623,7.83405
578,-0.02622,7.83405
579,-0.02621,7.83405
580,-0.0262,7.83405
581,-0.02619,7.83405
582,-0.02618,7.83405
583,-0.02617,7.83405
584,-0.02616,7.83405
585,-0.02615,7.83405
586,-0.02614,7.83405
587,-0.02613,7.83405
588,-0.02612,7.83405
589,-0.02611,7.83405
590,-0.0261,7.83405
591,-0.02609,7.83405
592,-0.02608,7.83405
593,-0.02607,7.83405
594,-0.02606,7.83405
595,-0.02605,7.83405
596,-0.02604,7.83405
597,-0.02603,7.83405
598,-0.02602,7.83405
599,-0.02601,7.83405
600,-0.026,7.83405
601,-0.02599,7.83405
602,-0.02598,7.83405
603,-0.02597,7.83405
604,-0.02596,7.81734
605,-0.02595,7.83405
606,-0.02594,7.83405
607,-0.02593,7.83405
608,-0.02592,7.83405
609,-0.02591,7.83405
610,-0.0259,7.81734
611,-0.02589,7.81734
612,-0.02588,7.81734
613,-0.02587,7.81734
614,-0.02586,7.83405
615,-0.02585,7.83405
616,-0.02584,7.83405
617,-0.02583,7.83405
618,-0.02582,7.83405
619,-0.02581,7.81734
620,-0.0258,7.83405
621,-0.02579,7.83405
622,-0.02578,7.83405
623,-0.02577,7.83405
624,-0.02576,7.83405
625,-0.02575,7.83405
626,-0.02574,7.83405
627,-0.02573,7.83405
628,-0.02572,7.83405
629,-0.02571,7.81734
630,-0.0257,7.83405
631,-0.02569,7.80064
632,-0.02568,7.83405
633,-0.02567,7.81734
634,-0.02566,7.81734
635,-0.02565,7.81734
636,-0.02564,7.81734
637,-0.02563,7.83405
638,-0.02562,7.83405
639,-0.02561,7.83405
640,-0.0256,7.81734
641,-0.02559,7.85075
642,-0.02558,7.85075
643,-0.02557,7.85075
644,-0.02556,7.88416
645,-0.02555,7.88416
646,-0.02554,7.88416
647,-0.02553,7.90086
648,-0.02552,7.90086
649,-0.02551,7.88416
650,-0.0255,7.91756
651,-0.02549,7.91756
652,-0.02548,7.91756
653,-0.02547,7.91756
654,-0.02546,7.93427
655,-0.02545,7.93427
656,-0.02544,7.93427
657,-0.02543,7.93427
658,-0.02542,7.95097
659,-0.02541,7.95097
660,-0.0254,7.93427
661,-0.02539,7.96768
662,-0.02538,7.96768
663,-0.02537,7.96768
664,-0.02536,7.96768
665,-0.02535,7.96768
666,-0.02534,7.96768
667,-0.02533,7.96768
668,-0.02532,7.98438
669,-0.02531,7.95097
670,-0.0253,7.98438
671,-0.02529,7.98438
672,-0.02528,7.98438
673,-0.02527,7.98438
674,-0.02526,7.98438
675,-0.02525,7.98438
676,-0.02524,7.98438
677,-0.02523,7.98438
678,-0.02522,7.98438
679,-0.02521,7.98438
680,-0.0252,7.98438
681,-0.02519,7.98438
682,-0.02518,7.98438
683,-0.02517,7.98438
684,-0.02516,7.98438
685,-0.02515,7.95097
686,-0.02514,7.96768
687,-0.02513,7.96768
688,-0.02512,7.96768
689,-0.02511,7.96768
690,-0.0251,7.96768
691,-0.02509,7.96768
692,-0.02508,7.96768
693,-0.02507,7.96768
694,-0.02506,7.96768
695,-0.02505,7.96768
696,-0.02504,7.96768
697,-0.02503,7.96768
698,-0.02502,7.96768
699,-0.02501,7.96768
700,-0.025,7.96768
701,-0.02499,7.96768
702,-0.02498,7.96768
703,-0.02497,7.96768
704,-0.02496,7.98438
705,-0.02495,7.95097
706,-0.02494,7.96768
707,-0.02493,7.96768
708,-0.02492,7.96768
709,-0.02491,7.96768
710,-0.0249,7.96768
711,-0.02489,7.96768
712,-0.02488,7.96768
713,-0.02487,7.96768
714,-0.02486,7.96768
715,-0.02485,7.96768
716,-0.02484,7.96768
717,-0.02483,7.96768
718,-0.02482,7.96768
719,-0.02481,7.96768
720,-0.0248,7.96768
721,-0.02479,7.96768
722,-0.02478,7.96768
723,-0.02477,7.96768
724,-0.02476,7.96768
725,-0.02475,7.96768
726,-0.02474,7.96768
727,-0.02473,7.96768
728,-0.02472,7.96768
729,-0.02471,7.96768
730,-0.0247,7.96768
731,-0.02469,7.96768
732,-0.02468,7.96768
733,-0.02467,7.96768
734,-0.02466,7.96768
735,-0.02465,7.96768
736,-0.02464,7.96768
737,-0.02463,7.96768
738,-0.02462,7.96768
739,-0.02461,7.96768
740,-0.0246,7.96768
741,-0.02459,7.96768
742,-0.02458,7.96768
743,-0.02457,7.96768
744,-0.02456,7.96768
745,-0.02455,7.96768
746,-0.02454,7.96768
747,-0.02453,7.96768
748,-0.02452,7.96768
749,-0.02451,7.96768
750,-0.0245,7.96768
751,-0.02449,7.96768
752,-0.02448,7.96768
753,-0.02447,7.96768
754,-0.02446,7.96768
755,-0.02445,7.96768
756,-0.02444,7.96768
757,-0.02443,7.96768
758,-0.02442,7.96768
759,-0.02441,7.96768
760,-0.0244,7.96768
761,-0.02439,7.96768
762,-0.02438,7.96768
763,-0.02437,7.96768
764,-0.02436,7.96768
765,-0.02435,7.96768
766,-0.02434,7.96768
767,-0.02433,7.96768
768,-0.02432,7.96768
769,-0.02431,7.96768
770,-0.0243,7.96768
771,-0.02429,7.96768
772,-0.02428,7.96768
773,-0.02427,7.96768
774,-0.02426,7.96768
775,-0.02425,7.96768
776,-0.02424,7.96768
777,-0.02423,7.96768
778,-0.02422,7.96768
779,-0.02421,7.96768
780,-0.0242,7.96768
781,-0.02419,7.96768
782,-0.02418,7.96768
783,-0.02417,7.96768
784,-0.02416,7.96768
785,-0.02415,7.96768
786,-0.02414,7.96768
787,-0.02413,7.96768
788,-0.02412,7.96768
789,-0.02411,7.96768
790,-0.0241,7.96768
791,-0.02409,7.96768
792,-0.02408,7.96768
793,-0.02407,7.96768
794,-0.02406,7.96768
795,-0.02405,7.96768
796,-0.02404,7.96768
797,-0.02403,7.96768
798,-0.02402,7.96768
799,-0.02401,7.96768
800,-0.024,7.96768
801,-0.02399,7.96768
802,-0.02398,7.96768
803,-0.02397,7.96768
804,-0.02396,7.96768
805,-0.02395,7.96768
806,-0.02394,7.96768
807,-0.02393,7.96768
808,-0.02392,7.96768
809,-0.02391,7.96768
810,-0.0239,7.96768
811,-0.02389,7.96768
812,-0.02388,7.96768
813,-0.02387,7.96768
814,-0.02386,7.96768
815,-0.02385,7.96768
816,-0.02384,7.96768
817,-0.02383,7.96768
818,-0.02382,7.96768
819,-0.02381,7.96768
820,-0.0238,7.96768
821,-0.02379,7.96768
822,-0.02378,7.96768
823,-0.02377,7.96768
824,-0.02376,7.96768
825,-0.02375,7.96768
826,-0.02374,7.96768
827,-0.02373,7.96768
828,-0.02372,7.96768
829,-0.02371,7.96768
830,-0.0237,7.96768
831,-0.02369,7.96768
832,-0.02368,7.96768
833,-0.02367,7.96768
834,-0.02366,7.96768
835,-0.02365,7.96768
836,-0.02364,7.96768
837,-0.02363,7.96768
838,-0.02362,7.96768
839,-0.02361,7.96768
840,-0.0236,7.96768
841,-0.02359,7.96768
842,-0.02358,7.96768
843,-0.02357,7.96768
844,-0.02356,7.96768
845,-0.02355,7.96768
846,-0.02354,7.96768
847,-0.02353,7.96768
848,-0.02352,7.96768
849,-0.02351,7.96768
850,-0.0235,7.96768
851,-0.02349,7.96768
852,-0.02348,7.96768
853,-0.02347,7.96768
854,-0.02346,7.96768
855,-0.02345,7.96768
856,-0.02344,7.96768
857,-0.02343,7.96768
858,-0.02342,7.96768
859,-0.02341,7.96768
860,-0.0234,7.96768
861,-0.02339,7.96768
862,-0.02338,7.96768
863,-0.02337,7.96768
864,-0.02336,7.96768
865,-0.02335,7.96768
866,-0.02334,7.96768
867,-0.02333,7.96768
868,-0.02332,7.96768
869,-0.02331,7.96768
870,-0.0233,7.96768
871,-0.02329,7.96768
872,-0.02328,7.96768
873,-0.02327,7.96768
874,-0.02326,7.96768
875,-0.02325,7.96768
876,-0.02324,7.96768
877,-0.02323,7.96768
878,-0.02322,7.96768
879,-0.02321,7.96768
880,-0.0232,7.96768
881,-0.02319,7.96768
882,-0.02318,7.96768
883,-0.02317,7.96768
884,-0.02316,7.96768
885,-0.02315,7.96768
886,-0.02314,7.96768
887,-0.02313,7.96768
888,-0.02312,7.96768
889,-0.02311,7.96768
890,-0.0231,7.96768
891,-0.02309,7.96768
892,-0.02308,7.96768
893,-0.02307,7.96768
894,-0.02306,7.96768
895,-0.02305,7.96768
896,-0.02304,7.96768
897,-0.02303,7.96768
898,-0.02302,7.96768
899,-0.02301,7.96768
900,-0.023,7.96768
901,-0.02299,7.96768
902,-0.02298,7.96768
903,-0.02297,7.96768
904,-0.02296,7.96768
905,-0.02295,7.96768
906,-0.02294,7.96768
907,-0.02293,7.96768
908,-0.02292,7.96768
909,-0.02291,7.96768
910,-0.0229,7.96768
911,-0.02289,7.96768
912,-0.02288,7.96768
913,-0.02287,7.96768
914,-0.02286,7.96768
915,-0.02285,7.96768
916,-0.02284,7.96768
917,-0.02283,7.96768
918,-0.02282,7.96768
919,-0.02281,7.96768
920,-0.0228,7.96768
921,-0.02279,7.96768
922,-0.02278,7.96768
923,-0.02277,7.95097
924,-0.02276,7.96768
925,-0.02275,7.96768
926,-0.02274,7.96768
927,-0.02273,7.96768
928,-0.02272,7.96768
929,-0.02271,7.96768
930,-0.0227,7.95097
931,-0.02269,7.95097
932,-0.02268,7.95097
933,-0.02267,7.95097
934,-0.02266,7.96768
935,-0.02265,7.96768
936,-0.02264,7.96768
937,-0.02263,7.96768
938,-0.02262,7.96768
939,-0.02261,7.95097
940,-0.0226,7.96768
941,-0.02259,7.96768
942,-0.02258,7.96768
943,-0.02257,7.95097
944,-0.02256,7.95097
945,-0.02255,7.95097
946,-0.02254,7.96768
947,-0.02253,7.96768
948,-0.02252,7.96768
949,-0.02251,7.96768
950,-0.0225,7.96768
951,-0.02249,7.96768
952,-0.02248,7.96768
953,-0.02247,7.95097
954,-0.02246,7.95097
955,-0.02245,7.95097
956,-0.02244,7.96768
957,-0.02243,7.95097
958,-0.02242,7.95097
959,-0.02241,7.95097
960,-0.0224,7.95097
961,-0.02239,7.95097
962,-0.02238,7.95097
963,-0.02237,7.95097
964,-0.02236,7.95097
965,-0.02235,7.95097
966,-0.02234,7.95097
967,-0.02233,7.95097
968,-0.02232,7.93427
969,-0.02231,7.96768
970,-0.0223,7.95097
971,-0.02229,7.95097
972,-0.02228,7.95097
973,-0.02227,7.95097
974,-0.02226,7.95097
975,-0.02225,7.93427
976,-0.02224,7.96768
977,-0.02223,7.95097
978,-0.02222,7.95097
979,-0.02221,7.95097
980,-0.0222,7.95097
981,-0.02219,7.95097
982,-0.02218,7.95097
983,-0.02217,7.95097
984,-0.02216,7.95097
985,-0.02215,7.95097
986,-0.02214,7.95097
987,-0.02213,7.95097
988,-0.02212,7.95097
989,-0.02211,7.95097
990,-0.0221,7.95097
991,-0.02209,7.95097
992,-0.02208,7.95097
993,-0.02207,7.95097
994,-0.02206,7.95097
995,-0.02205,7.95097
996,-0.02204,7.95097
997,-0.02203,7.95097
998,-0.02202,7.95097
999,-0.02201,7.95097
1000,-0.022,7.95097
1001,-0.02199,7.95097
1002,-0.02198,7.95097
1003,-0.02197,7.95097
1004,-0.02196,7.95097
1005,-0.02195,7.95097
1006,-0.02194,7.95097
1007,-0.02193,7.95097
1008,-0.02192,7.95097
1009,-0.02191,7.95097
1010,-0.0219,7.95097
1011,-0.02189,7.95097
1012,-0.02188,7.95097
1013,-0.02187,7.95097
1014,-0.02186,7.95097
1015,-0.02185,7.95097
1016,-0.02184,7.95097
1017,-0.02183,7.95097
1018,-0.02182,7.95097
1019,-0.02181,7.95097
1020,-0.0218,7.95097
1021,-0.02179,7.95097
1022,-0.02178,7.95097
1023,-0.02177,7.95097
1024,-0.02176,7.95097
1025,-0.02175,7.95097
1026,-0.02174,7.95097
1027,-0.02173,7.95097
1028,-0.02172,7.95097
1029,-0.02171,7.95097
1030,-0.0217,7.95097
1031,-0.02169,7.95097
1032,-0.02168,7.95097
1033,-0.02167,7.95097
1034,-0.02166,7.95097
1035,-0.02165,7.95097
1036,-0.02164,7.95097
1037,-0.02163,7.95097
1038,-0.02162,7.95097
1039,-0.02161,7.95097
1040,-0.0216,7.95097
1041,-0.02159,7.95097
1042,-0.02158,7.95097
1043,-0.02157,7.95097
1044,-0.02156,7.95097
1045,-0.02155,7.95097
1046,-0.02154,7.95097
1047,-0.02153,7.95097
1048,-0.02152,7.95097
1049,-0.02151,7.95097
1050,-0.0215,7.95097
1051,-0.02149,7.95097
1052,-0.02148,7.95097
1053,-0.02147,7.95097
1054,-0.02146,7.95097
1055,-0.02145,7.95097
1056,-0.02144,7.95097
1057,-0.02143,7.95097
1058,-0.02142,7.95097
1059,-0.02141,7.95097
1060,-0.0214,7.95097
1061,-0.02139,7.95097
1062,-0.02138,7.95097
1063,-0.02137,7.95097
1064,-0.02136,7.95097
1065,-0.02135,7.95097
1066,-0.02134,7.95097
1067,-0.02133,7.95097
1068,-0.02132,7.95097
1069,-0.02131,7.95097
1070,-0.0213,7.95097
1071,-0.02129,7.95097
1072,-0.02128,7.95097
1073,-0.02127,7.93427
1074,-0.02126,7.90086
1075,-0.02125,7.90086
1076,-0.02124,7.90086
1077,-0.02123,7.90086
1078,-0.02122,7.90086
1079,-0.02121,7.90086
1080,-0.0212,7.90086
1081,-0.02119,7.90086
1082,-0.02118,7.90086
1083,-0.02117,7.90086
1084,-0.02116,7.90086
1085,-0.02115,7.90086
1086,-0.02114,7.90086
1087,-0.02113,7.90086
1088,-0.02112,7.90086
1089,-0.02111,7.90086
1090,-0.0211,7.90086
1091,-0.02109,7.90086
1092,-0.02108,7.90086
1093,-0.02107,7.90086
1094,-0.02106,7.90086
1095,-0.02105,7.90086
1096,-0.02104,7.90086
1097,-0.02103,7.90086
1098,-0.02102,7.90086
1099,-0.02101,7.90086
1100,-0.021,7.90086
1101,-0.02099,7.90086
1102,-0.02098,7.90086
1103,-0.02097,7.90086
1104,-0.02096,7.90086
1105,-0.02095,7.90086
1106,-0.02094,7.90086
1107,-0.02093,7.90086
1108,-0.02092,7.90086
1109,-0.02091,7.90086
1110,-0.0209,7.90086
1111,-0.02089,7.90086
1112,-0.02088,7.90086
1113,-0.02087,7.90086
1114,-0.02086,7.90086
1115,-0.02085,7.90086
1116,-0.02084,7.90086
1117,-0.02083,7.90086
1118,-0.02082,7.90086
1119,-0.02081,7.90086
1120,-0.0208,7.90086
1121,-0.02079,7.90086
1122,-0.02078,7.90086
1123,-0.02077,7.90086
1124,-0.02076,7.90086
1125,-0.02075,7.90086
1126,-0.02074,7.90086
1127,-0.02073,7.90086
1128,-0.02072,7.90086
1129,-0.02071,7.90086
1130,-0.0207,7.90086
1131,-0.02069,7.90086
1132,-0.02068,7.90086
1133,-0.02067,7.90086
1134,-0.02066,7.90086
1135,-0.02065,7.90086
1136,-0.02064,7.90086
1137,-0.02063,7.90086
1138,-0.02062,7.90086
1139,-0.02061,7.90086
1140,-0.0206,7.90086
1141,-0.02059,7.90086
1142,-0.02058,7.90086
1143,-0.02057,7.90086
1144,-0.02056,7.90086
1145,-0.02055,7.90086
1146,-0.02054,7.90086
1147,-0.02053,7.90086
1148,-0.02052,7.90086
1149,-0.02051,7.90086
1150,-0.0205,7.90086
1151,-0.02049,7.90086
1152,-0.02048,7.90086
1153,-0.02047,7.90086
1154,-0.02046,7.90086
1155,-0.02045,7.90086
1156,-0.02044,7.90086
1157,-0.02043,7.90086
1158,-0.02042,7.90086
1159,-0.02041,7.90086
1160,-0.0204,7.90086
1161,-0.02039,7.90086
1162,-0.02038,7.90086
1163,-0.02037,7.90086
1164,-0.02036,7.90086
1165,-0.02035,7.90086
1166,-0.02034,7.90086
1167,-0.02033,7.90086
1168,-0.02032,7.90086
1169,-0.02031,7.90086
1170,-0.0203,7.90086
1171,-0.02029,7.90086
1172,-0.02028,7.90086
1173,-0.02027,7.90086
1174,-0.02026,7.90086
1175,-0.02025,7.90086
1176,-0.02024,7.90086
1177,-0.02023,7.90086
1178,-0.02022,7.90086
1179,-0.02021,7.90086
1180,-0.0202,7.90086
1181,-0.02019,7.90086
1182,-0.02018,7.90086
1183,-0.02017,7.90086
1184,-0.02016,7.90086
1185,-0.02015,7.90086
1186,-0.02014,7.90086
1187,-0.02013,7.90086
1188,-0.02012,7.90086
1189,-0.02011,7.90086
1190,-0.0201,7.90086
1191,-0.02009,7.90086
1192,-0.02008,7.90086
1193,-0.02007,7.90086
1194,-0.02006,7.90086
1195,-0.02005,7.90086
1196,-0.02004,7.90086
1197,-0.02003,7.90086
1198,-0.02002,7.90086
1199,-0.02001,7.90086
1200,-0.02,7.90086
1201,-0.01999,7.90086
1202,-0.01998,7.90086
1203,-0.01997,7.90086
1204,-0.01996,7.90086
1205,-0.01995,7.90086
1206,-0.01994,7.90086
1207,-0.01993,7.90086
1208,-0.01992,7.90086
1209,-0.01991,7.90086
1210,-0.0199,7.90086
1211,-0.01989,7.90086
1212,-0.01988,7.90086
1213,-0.01987,7.90086
1214,-0.01986,7.90086
1215,-0.01985,7.90086
1216,-0.01984,7.90086
1217,-0.01983,7.90086
1218,-0.01982,7.90086
1219,-0.01981,7.90086
1220,-0.0198,7.90086
1221,-0.01979,7.90086
1222,-0.01978,7.90086
1223,-0.01977,7.90086
1224,-0.01976,7.90086
1225,-0.01975,7.90086
1226,-0.01974,7.90086
1227,-0.01973,7.88416
1228,-0.01972,7.90086
1229,-0.01971,7.90086
1230,-0.0197,7.90086
1231,-0.01969,7.90086
1232,-0.01968,7.90086
1233,-0.01967,7.90086
1234,-0.01966,7.90086
1235,-0.01965,7.90086
1236,-0.01964,7.90086
1237,-0.01963,7.90086
1238,-0.01962,7.90086
1239,-0.01961,7.90086
1240,-0.0196,7.90086
1241,-0.01959,7.90086
1242,-0.01958,7.90086
1243,-0.01957,7.90086
1244,-0.01956,7.90086
1245,-0.01955,7.90086
1246,-0.01954,7.90086
1247,-0.01953,7.90086
1248,-0.01952,7.90086
1249,-0.01951,7.90086
1250,-0.0195,7.90086
1251,-0.01949,7.90086
1252,-0.01948,7.88416
1253,-0.01947,7.90086
1254,-0.01946,7.90086
1255,-0.01945,7.90086
1256,-0.01944,7.90086
1257,-0.01943,7.90086
1258,-0.01942,7.90086
1259,-0.01941,7.90086
1260,-0.0194,7.90086
1261,-0.01939,7.90086
1262,-0.01938,7.90086
1263,-0.01937,7.88416
1264,-0.01936,7.90086
1265,-0.01935,7.90086
1266,-0.01934,7.90086
1267,-0.01933,7.88416
1268,-0.01932,7.90086
1269,-0.01931,7.90086
1270,-0.0193,7.85075
1271,-0.01929,7.90086
1272,-0.01928,7.90086
1273,-0.01927,7.90086
1274,-0.01926,7.90086
1275,-0.01925,7.90086
1276,-0.01924,7.90086
1277,-0.01923,7.90086
1278,-0.01922,7.88416
1279,-0.01921,7.85075
1280,-0.0192,7.90086
1281,-0.01919,7.88416
1282,-0.01918,7.90086
1283,-0.01917,7.90086
1284,-0.01916,7.85075
1285,-0.01915,7.88416
1286,-0.01914,7.90086
1287,-0.01913,7.90086
1288,-0.01912,7.90086
1289,-0.01911,7.88416
1290,-0.0191,7.90086
1291,-0.01909,7.90086
1292,-0.01908,7.90086
1293,-0.01907,7.90086
1294,-0.01906,7.90086
1295,-0.01905,7.90086
1296,-0.01904,7.90086
1297,-0.01903,7.88416
1298,-0.01902,7.85075
1299,-0.01901,7.90086
1300,-0.019,7.85075
1301,-0.01899,7.88416
1302,-0.01898,7.88416
1303,-0.01897,7.88416
1304,-0.01896,7.88416
1305,-0.01895,7.88416
1306,-0.01894,7.88416
1307,-0.01893,7.88416
1308,-0.01892,7.88416
1309,-0.01891,7.88416
1310,-0.0189,7.88416
1311,-0.01889,7.88416
1312,-0.01888,7.88416
1313,-0.01887,7.88416
1314,-0.01886,7.88416
1315,-0.01885,7.88416
1316,-0.01884,7.88416
1317,-0.01883,7.88416
1318,-0.01882,7.88416
1319,-0.01881,7.88416
1320,-0.0188,7.88416
1321,-0.01879,7.88416
1322,-0.01878,7.88416
1323,-0.01877,7.88416
1324,-0.01876,7.88416
1325,-0.01875,7.88416
1326,-0.01874,7.88416
1327,-0.01873,7.88416
1328,-0.01872,7.88416
1329,-0.01871,7.88416
1330,-0.0187,7.88416
1331,-0.01869,7.88416
1332,-0.01868,7.88416
1333,-0.01867,7.88416
1334,-0.01866,7.88416
1335,-0.01865,7.88416
1336,-0.01864,7.88416
1337,-0.01863,7.88416
1338,-0.01862,7.88416
1339,-0.01861,7.88416
1340,-0.0186,7.88416
1341,-0.01859,7.88416
1342,-0.01858,7.88416
1343,-0.01857,7.88416
1344,-0.01856,7.88416
1345,-0.01855,7.88416
1346,-0.01854,7.88416
1347,-0.01853,7.88416
1348,-0.01852,7.88416
1349,-0.01851,7.88416
1350,-0.0185,7.88416
1351,-0.01849,7.88416
1352,-0.01848,7.88416
1353,-0.01847,7.88416
1354,-0.01846,7.88416
1355,-0.01845,7.88416
1356,-0.01844,7.88416
1357,-0.01843,7.88416
1358,-0.01842,7.88416
1359,-0.01841,7.88416
1360,-0.0184,7.88416
1361,-0.01839,7.88416
1362,-0.01838,7.88416
1363,-0.01837,7.88416
1364,-0.01836,7.88416
1365,-0.01835,7.88416
1366,-0.01834,7.88416
1367,-0.01833,7.88416
1368,-0.01832,7.88416
1369,-0.01831,7.88416
1370,-0.0183,7.88416
1371,-0.01829,7.88416
1372,-0.01828,7.88416
1373,-0.01827,7.88416
1374,-0.01826,7.88416
1375,-0.01825,7.88416
1376,-0.01824,7.88416
1377,-0.01823,7.88416
1378,-0.01822,7.88416
1379,-0.01821,7.88416
1380,-0.0182,7.88416
1381,-0.01819,7.88416
1382,-0.01818,7.88416
1383,-0.01817,7.88416
1384,-0.01816,7.88416
1385,-0.01815,7.88416
1386,-0.01814,7.88416
1387,-0.01813,7.88416
1388,-0.01812,7.88416
1389,-0.01811,7.88416
1390,-0.0181,7.88416
1391,-0.01809,7.88416
1392,-0.01808,7.88416
1393,-0.01807,7.88416
1394,-0.01806,7.88416
1395,-0.01805,7.88416
1396,-0.01804,7.88416
1397,-0.01803,7.88416
1398,-0.01802,7.88416
1399,-0.01801,7.88416
1400,-0.018,7.88416
1401,-0.01799,7.88416
1402,-0.01798,7.88416
1403,-0.01797,7.88416
1404,-0.01796,7.88416
1405,-0.01795,7.88416
1406,-0.01794,7.88416
1407,-0.01793,7.88416
1408,-0.01792,7.88416
1409,-0.01791,7.88416
1410,-0.0179,7.88416
1411,-0.01789,7.88416
1412,-0.01788,7.88416
1413,-0.01787,7.88416
1414,-0.01786,7.88416
1415,-0.01785,7.88416
1416,-0.01784,7.88416
1417,-0.01783,7.88416
1418,-0.01782,7.88416
1419,-0.01781,7.88416
1420,-0.0178,7.88416
1421,-0.01779,7.88416
1422,-0.01778,7.88416
1423,-0.01777,7.88416
1424,-0.01776,7.88416
1425,-0.01775,7.88416
1426,-0.01774,7.88416
1427,-0.01773,7.88416
1428,-0.01772,7.88416
1429,-0.01771,7.88416
1430,-0.0177,7.88416
1431,-0.01769,7.88416
1432,-0.01768,7.88416
1433,-0.01767,7.88416
1434,-0.01766,7.88416
1435,-0.01765,7.88416
1436,-0.01764,7.88416
1437,-0.01763,7.88416
1438,-0.01762,7.88416
1439,-0.01761,7.88416
1440,-0.0176,7.88416
1441,-0.01759,7.88416
1442,-0.01758,7.88416
1443,-0.01757,7.88416
1444,-0.01756,7.88416
1445,-0.01755,7.88416
1446,-0.01754,7.88416
1447,-0.01753,7.88416
1448,-0.01752,7.88416
1449,-0.01751,7.88416
1450,-0.0175,7.88416
1451,-0.01749,7.88416
1452,-0.01748,7.88416
1453,-0.01747,7.88416
1454,-0.01746,7.88416
1455,-0.01745,7.88416
1456,-0.01744,7.88416
1457,-0.01743,7.88416
1458,-0.01742,7.88416
1459,-0.01741,7.88416
1460,-0.0174,7.88416
1461,-0.01739,7.88416
1462,-0.01738,7.88416
1463,-0.01737,7.88416
1464,-0.01736,7.88416
1465,-0.01735,7.88416
1466,-0.01734,7.88416
1467,-0.01733,7.88416
1468,-0.01732,7.88416
1469,-0.01731,7.88416
1470,-0.0173,7.88416
1471,-0.01729,7.88416
1472,-0.01728,7.88416
1473,-0.01727,7.88416
1474,-0.01726,7.88416
1475,-0.01725,7.88416
1476,-0.01724,7.88416
1477,-0.01723,7.88416
1478,-0.01722,7.88416
1479,-0.01721,7.88416
1480,-0.0172,7.88416
1481,-0.01719,7.88416
1482,-0.01718,7.88416
1483,-0.01717,7.88416
1484,-0.01716,7.88416
1485,-0.01715,7.88416
1486,-0.01714,7.88416
1487,-0.01713,7.88416
1488,-0.01712,7.88416
1489,-0.01711,7.88416
1490,-0.0171,7.88416
1491,-0.01709,7.88416
1492,-0.01708,7.88416
1493,-0.01707,7.88416
1494,-0.01706,7.88416
1495,-0.01705,7.88416
1496,-0.01704,7.88416
1497,-0.01703,7.88416
1498,-0.01702,7.88416
1499,-0.01701,7.88416
1500,-0.017,7.88416
1501,-0.01699,7.88416
1502,-0.01698,7.88416
1503,-0.01697,7.88416
1504,-0.01696,7.88416
1505,-0.01695,7.88416
1506,-0.01694,7.88416
1507,-0.01693,7.88416
1508,-0.01692,7.88416
1509,-0.01691,7.88416
1510,-0.0169,7.88416
1511,-0.01689,7.88416
1512,-0.01688,7.83405
1513,-0.01687,7.88416
1514,-0.01686,7.85075
1515,-0.01685,7.88416
1516,-0.01684,7.88416
1517,-0.01683,7.88416
1518,-0.01682,7.88416
1519,-0.01681,7.88416
1520,-0.0168,7.88416
1521,-0.01679,7.88416
1522,-0.01678,7.88416
1523,-0.01677,7.88416
1524,-0.01676,7.85075
1525,-0.01675,7.83405
1526,-0.01674,7.88416
1527,-0.01673,7.88416
1528,-0.01672,7.88416
1529,-0.01671,7.85075
1530,-0.0167,7.83405
1531,-0.01669,7.88416
1532,-0.01668,7.88416
1533,-0.01667,7.88416
1534,-0.01666,7.88416
1535,-0.01665,7.85075
1536,-0.01664,7.88416
1537,-0.01663,7.85075
1538,-0.01662,7.85075
1539,-0.01661,7.85075
1540,-0.0166,7.85075
1541,-0.01659,7.85075
1542,-0.01658,7.85075
1543,-0.01657,7.85075
1544,-0.01656,7.85075
1545,-0.01655,7.85075
1546,-0.01654,7.85075
1547,-0.01653,7.85075
1548,-0.01652,7.85075
1549,-0.01651,7.85075
1550,-0.0165,7.88416
1551,-0.01649,7.88416
1552,-0.01648,7.85075
1553,-0.01647,7.83405
1554,-0.01646,7.85075
1555,-0.01645,7.85075
1556,-0.01644,7.85075
1557,-0.01643,7.85075
1558,-0.01642,7.85075
1559,-0.01641,7.85075
1560,-0.0164,7.85075
1561,-0.01639,7.85075
1562,-0.01638,7.85075
1563,-0.01637,7.83405
1564,-0.01636,7.88416
1565,-0.01635,7.88416
1566,-0.01634,7.85075
1567,-0.01633,7.85075
1568,-0.01632,7.85075
1569,-0.01631,7.85075
1570,-0.0163,7.85075
1571,-0.01629,7.85075
1572,-0.01628,7.85075
1573,-0.01627,7.85075
1574,-0.01626,7.85075
1575,-0.01625,7.85075
1576,-0.01624,7.85075
1577,-0.01623,7.85075
1578,-0.01622,7.85075
1579,-0.01621,7.85075
1580,-0.0162,7.85075
1581,-0.01619,7.85075
1582,-0.01618,7.85075
1583,-0.01617,7.85075
1584,-0.01616,7.85075
1585,-0.01615,7.85075
1586,-0.01614,7.85075
1587,-0.01613,7.85075
1588,-0.01612,7.85075
1589,-0.01611,7.85075
1590,-0.0161,7.85075
1591,-0.01609,7.85075
1592,-0.01608,7.85075
1593,-0.01607,7.85075
1594,-0.01606,7.85075
1595,-0.01605,7.85075
1596,-0.01604,7.85075
1597,-0.01603,7.85075
1598,-0.01602,7.85075
1599,-0.01601,7.85075
1600,-0.016,7.85075
1601,-0.01599,7.85075
1602,-0.01598,7.85075
1603,-0.01597,7.85075
1604,-0.01596,7.85075
1605,-0.01595,7.85075
1606,-0.01594,7.85075
1607,-0.01593,7.85075
1608,-0.01592,7.85075
1609,-0.01591,7.85075
1610,-0.0159,7.85075
1611,-0.01589,7.85075
1612,-0.01588,7.85075
1613,-0.01587,7.85075
1614,-0.01586,7.85075
1615,-0.01585,7.85075
1616,-0.01584,7.85075
1617,-0.01583,7.85075
1618,-0.01582,7.85075
1619,-0.01581,7.85075
1620,-0.0158,7.85075
1621,-0.01579,7.85075
1622,-0.01578,7.85075
1623,-0.01577,7.85075
1624,-0.01576,7.85075
1625,-0.01575,7.85075
1626,-0.01574,7.85075
1627,-0.01573,7.85075
1628,-0.01572,7.85075
1629,-0.01571,7.85075
1630,-0.0157,7.85075
1631,-0.01569,7.85075
1632,-0.01568,7.85075
1633,-0.01567,7.85075
1634,-0.01566,7.85075
1635,-0.01565,7.85075
1636,-0.01564,7.85075
1637,-0.01563,7.85075
1638,-0.01562,7.85075
1639,-0.01561,7.85075
1640,-0.0156,7.85075
1641,-0.01559,7.85075
1642,-0.01558,7.85075
1643,-0.01557,7.85075
1644,-0.01556,7.85075
1645,-0.01555,7.85075
1646,-0.01554,7.85075
1647,-0.01553,7.85075
1648,-0.01552,7.85075
1649,-0.01551,7.85075
1650,-0.0155,7.85075
1651,-0.01549,7.85075
1652,-0.01548,7.85075
1653,-0.01547,7.85075
1654,-0.01546,7.85075
1655,-0.01545,7.85075
1656,-0.01544,7.85075
1657,-0.01543,7.85075
1658,-0.01542,7.85075
1659,-0.01541,7.85075
1660,-0.0154,7.85075
1661,-0.01539,7.85075
1662,-0.01538,7.85075
1663,-0.01537,7.85075
1664,-0.01536,7.85075
1665,-0.01535,7.85075
1666,-0.01534,7.85075
1667,-0.01533,7.85075
1668,-0.01532,7.85075
1669,-0.01531,7.85075
1670,-0.0153,7.85075
1671,-0.01529,7.85075
1672,-0.01528,7.85075
1673,-0.01527,7.85075
1674,-0.01526,7.85075
1675,-0.01525,7.85075
1676,-0.01524,7.85075
1677,-0.01523,7.85075
1678,-0.01522,7.85075
1679,-0.01521,7.85075
1680,-0.0152,7.85075
1681,-0.01519,7.85075
1682,-0.01518,7.85075
1683,-0.01517,7.85075
1684,-0.01516,7.85075
1685,-0.01515,7.85075
1686,-0.01514,7.85075
1687,-0.01513,7.85075
1688,-0.01512,7.85075
1689,-0.01511,7.85075
1690,-0.0151,7.85075
1691,-0.01509,7.85075
1692,-0.01508,7.85075
1693,-0.01507,7.85075
1694,-0.01506,7.85075
1695,-0.01505,7.85075
1696,-0.01504,7.85075
1697,-0.01503,7.85075
1698,-0.01502,7.85075
1699,-0.01501,7.85075
1700,-0.015,7.85075
1701,-0.01499,7.85075
1702,-0.01498,7.85075
1703,-0.01497,7.85075
1704,-0.01496,7.85075
1705,-0.01495,7.85075
1706,-0.01494,7.85075
1707,-0.01493,7.85075
1708,-0.01492,7.85075
1709,-0.01491,7.85075
1710,-0.0149,7.85075
1711,-0.01489,7.85075
1712,-0.01488,7.85075
1713,-0.01487,7.85075
1714,-0.01486,7.85075
1715,-0.01485,7.85075
1716,-0.01484,7.85075
1717,-0.01483,7.85075
1718,-0.01482,7.85075
1719,-0.01481,7.85075
1720,-0.0148,7.85075
1721,-0.01479,7.85075
1722,-0.01478,7.85075
1723,-0.01477,7.85075
1724,-0.01476,7.85075
1725,-0.01475,7.85075
1726,-0.01474,7.85075
1727,-0.01473,7.85075
1728,-0.01472,7.85075
1729,-0.01471,7.85075
1730,-0.0147,7.85075
1731,-0.01469,7.85075
1732,-0.01468,7.85075
1733,-0.01467,7.85075
1734,-0.01466,7.85075
1735,-0.01465,7.85075
1736,-0.01464,7.85075
1737,-0.01463,7.85075
1738,-0.01462,7.85075
1739,-0.01461,7.85075
1740,-0.0146,7.85075
1741,-0.01459,7.85075
1742,-0.01458,7.85075
1743,-0.01457,7.85075
1744,-0.01456,7.85075
1745,-0.01455,7.85075
1746,-0.01454,7.85075
1747,-0.01453,7.85075
1748,-0.01452,7.85075
1749,-0.01451,7.85075
1750,-0.0145,7.85075
1751,-0.01449,7.85075
1752,-0.01448,7.85075
1753,-0.01447,7.85075
1754,-0.01446,7.85075
1755,-0.01445,7.85075
1756,-0.01444,7.85075
1757,-0.01443,7.85075
1758,-0.01442,7.85075
1759,-0.01441,7.85075
1760,-0.0144,7.85075
1761,-0.01439,7.85075
1762,-0.01438,7.85075
1763,-0.01437,7.85075
1764,-0.01436,7.85075
1765,-0.01435,7.85075
1766,-0.01434,7.85075
1767,-0.01433,7.85075
1768,-0.01432,7.85075
1769,-0.01431,7.85075
1770,-0.0143,7.85075
1771,-0.01429,7.85075
1772,-0.01428,7.85075
1773,-0.01427,7.85075
1774,-0.01426,7.85075
1775,-0.01425,7.85075
1776,-0.01424,7.85075
1777,-0.01423,7.85075
1778,-0.01422,7.85075
1779,-0.01421,7.85075
1780,-0.0142,7.85075
1781,-0.01419,7.85075
1782,-0.01418,7.85075
1783,-0.01417,7.85075
1784,-0.01416,7.85075
1785,-0.01415,7.85075
1786,-0.01414,7.85075
1787,-0.01413,7.85075
1788,-0.01412,7.85075
1789,-0.01411,7.85075
1790,-0.0141,7.85075
1791,-0.01409,7.85075
1792,-0.01408,7.85075
1793,-0.01407,7.85075
1794,-0.01406,7.85075
1795,-0.01405,7.85075
1796,-0.01404,7.85075
1797,-0.01403,7.85075
1798,-0.01402,7.85075
1799,-0.01401,7.85075
1800,-0.014,7.85075
1801,-0.01399,7.83405
1802,-0.01398,7.85075
1803,-0.01397,7.83405
1804,-0.01396,7.83405
1805,-0.01395,7.85075
1806,-0.01394,7.85075
1807,-0.01393,7.85075
1808,-0.01392,7.81734
1809,-0.01391,7.81734
1810,-0.0139,7.83405
1811,-0.01389,7.83405
1812,-0.01388,7.83405
1813,-0.01387,7.85075
1814,-0.01386,7.81734
1815,-0.01385,7.83405
1816,-0.01384,7.83405
1817,-0.01383,7.83405
1818,-0.01382,7.83405
1819,-0.01381,7.83405
1820,-0.0138,7.81734
1821,-0.01379,7.83405
1822,-0.01378,7.83405
1823,-0.01377,7.83405
1824,-0.01376,7.83405
1825,-0.01375,7.83405
1826,-0.01374,7.83405
1827,-0.01373,7.83405
1828,-0.01372,7.85075
1829,-0.01371,7.81734
1830,-0.0137,7.85075
1831,-0.01369,7.81734
1832,-0.01368,7.83405
1833,-0.01367,7.83405
1834,-0.01366,7.81734
1835,-0.01365,7.85075
1836,-0.01364,7.81734
1837,-0.01363,7.83405
1838,-0.01362,7.83405
1839,-0.01361,7.83405
1840,-0.0136,7.83405
1841,-0.01359,7.83405
1842,-0.01358,7.83405
1843,-0.01357,7.81734
1844,-0.01356,7.85075
1845,-0.01355,7.81734
1846,-0.01354,7.83405
1847,-0.01353,7.83405
1848,-0.01352,7.83405
1849,-0.01351,7.83405
1850,-0.0135,7.83405
1851,-0.01349,7.83405
1852,-0.01348,7.83405
1853,-0.01347,7.83405
1854,-0.01346,7.83405
1855,-0.01345,7.83405
1856,-0.01344,7.83405
1857,-0.01343,7.83405
1858,-0.01342,7.83405
1859,-0.01341,7.83405
1860,-0.0134,7.83405
1861,-0.01339,7.83405
1862,-0.01338,7.83405
1863,-0.01337,7.83405
1864,-0.01336,7.83405
1865,-0.01335,7.83405
1866,-0.01334,7.83405
1867,-0.01333,7.83405
1868,-0.01332,7.83405
1869,-0.01331,7.83405
1870,-0.0133,7.83405
1871,-0.01329,7.83405
1872,-0.01328,7.83405
1873,-0.01327,7.83405
1874,-0.01326,7.83405
1875,-0.01325,7.83405
1876,-0.01324,7.83405
1877,-0.01323,7.83405
1878,-0.01322,7.83405
1879,-0.01321,7.83405
1880,-0.0132,7.83405
1881,-0.01319,7.83405
1882,-0.01318,7.83405
1883,-0.01317,7.83405
1884,-0.01316,7.83405
1885,-0.01315,7.83405
1886,-0.01314,7.83405
1887,-0.01313,7.83405
1888,-0.01312,7.83405
1889,-0.01311,7.83405
1890,-0.0131,7.83405
1891,-0.01309,7.83405
1892,-0.01308,7.83405
1893,-0.01307,7.83405
1894,-0.01306,7.83405
1895,-0.01305,7.83405
1896,-0.01304,7.83405
1897,-0.01303,7.83405
1898,-0.01302,7.83405
1899,-0.01301,7.83405
1900,-0.013,7.83405
1901,-0.01299,7.83405
1902,-0.01298,7.83405
1903,-0.01297,7.83405
1904,-0.01296,7.83405
1905,-0.01295,7.83405
1906,-0.01294,7.83405
1907,-0.01293,7.83405
1908,-0.01292,7.83405
1909,-0.01291,7.83405
1910,-0.0129,7.83405
1911,-0.01289,7.83405
1912,-0.01288,7.83405
1913,-0.01287,7.83405
1914,-0.01286,7.83405
1915,-0.01285,7.83405
1916,-0.01284,7.83405
1917,-0.01283,7.83405
1918,-0.01282,7.83405
1919,-0.01281,7.83405
1920,-0.0128,7.83405
1921,-0.01279,7.83405
1922,-0.01278,7.83405
1923,-0.01277,7.83405
1924,-0.01276,7.83405
1925,-0.01275,7.83405
1926,-0.01274,7.83405
1927,-0.01273,7.83405
1928,-0.01272,7.83405
1929,-0.01271,7.83405
1930,-0.0127,7.83405
1931,-0.01269,7.83405
1932,-0.01268,7.83405
1933,-0.01267,7.83405
1934,-0.01266,7.83405
1935,-0.01265,7.83405
1936,-0.01264,7.83405
1937,-0.01263,7.83405
1938,-0.01262,7.83405
1939,-0.01261,7.83405
1940,-0.0126,7.83405
1941,-0.01259,7.83405
1942,-0.01258,7.83405
1943,-0.01257,7.83405
1944,-0.01256,7.83405
1945,-0.01255,7.83405
1946,-0.01254,7.83405
1947,-0.01253,7.83405
1948,-0.01252,7.83405
1949,-0.01251,7.83405
1950,-0.0125,7.83405
1951,-0.01249,7.83405
1952,-0.01248,7.83405
1953,-0.01247,7.83405
1954,-0.01246,7.83405
1955,-0.01245,7.83405
1956,-0.01244,7.83405
1957,-0.01243,7.83405
1958,-0.01242,7.83405
1959,-0.01241,7.83405
1960,-0.0124,7.83405
1961,-0.01239,7.83405
1962,-0.01238,7.83405
1963,-0.01237,7.83405
1964,-0.01236,7.83405
1965,-0.01235,7.83405
1966,-0.01234,7.83405
1967,-0.01233,7.83405
1968,-0.01232,7.83405
1969,-0.01231,7.83405
1970,-0.0123,7.83405
1971,-0.01229,7.83405
1972,-0.01228,7.83405
1973,-0.01227,7.83405
1974,-0.01226,7.83405
1975,-0.01225,7.83405
1976,-0.01224,7.83405
1977,-0.01223,7.83405
1978,-0.01222,7.83405
1979,-0.01221,7.83405
1980,-0.0122,7.83405
1981,-0.01219,7.83405
1982,-0.01218,7.83405
1983,-0.01217,7.83405
1984,-0.01216,7.83405
1985,-0.01215,7.83405
1986,-0.01214,7.83405
1987,-0.01213,7.83405
1988,-0.01212,7.83405
1989,-0.01211,7.83405
1990,-0.0121,7.83405
1991,-0.01209,7.83405
1992,-0.01208,7.83405
1993,-0.01207,7.83405
1994,-0.01206,7.83405
1995,-0.01205,7.83405
1996,-0.01204,7.83405
1997,-0.01203,7.83405
1998,-0.01202,7.83405
1999,-0.01201,7.83405
2000,-0.012,7.83405
2001,-0.01199,7.83405
2002,-0.01198,7.83405
2003,-0.01197,7.83405
2004,-0.01196,7.83405
2005,-0.01195,7.83405
2006,-0.01194,7.83405
2007,-0.01193,7.83405
2008,-0.01192,7.83405
2009,-0.01191,7.83405
2010,-0.0119,7.83405
2011,-0.01189,7.83405
2012,-0.01188,7.83405
2013,-0.01187,7.83405
2014,-0.01186,7.83405
2015,-0.01185,7.83405
2016,-0.01184,7.83405
2017,-0.01183,7.83405
2018,-0.01182,7.83405
2019,-0.01181,7.83405
2020,-0.0118,7.83405
2021,-0.01179,7.83405
2022,-0.01178,7.83405
2023,-0.01177,7.83405
2024,-0.01176,7.83405
2025,-0.01175,7.83405
2026,-0.01174,7.83405
2027,-0.01173,7.83405
2028,-0.01172,7.83405
2029,-0.01171,7.83405
2030,-0.0117,7.83405
2031,-0.01169,7.83405
2032,-0.01168,7.83405
2033,-0.01167,7.83405
2034,-0.01166,7.83405
2035,-0.01165,7.83405
2036,-0.01164,7.83405
2037,-0.01163,7.83405
2038,-0.01162,7.83405
2039,-0.01161,7.83405
2040,-0.0116,7.83405
2041,-0.01159,7.83405
2042,-0.01158,7.83405
2043,-0.01157,7.83405
2044,-0.01156,7.83405
2045,-0.01155,7.83405
2046,-0.01154,7.83405
2047,-0.01153,7.83405
2048,-0.01152,7.83405
2049,-0.01151,7.83405
2050,-0.0115,7.83405
2051,-0.01149,7.83405
2052,-0.01148,7.83405
2053,-0.01147,7.83405
2054,-0.01146,7.83405
2055,-0.01145,7.83405
2056,-0.01144,7.83405
2057,-0.01143,7.83405
2058,-0.01142,7.83405
2059,-0.01141,7.83405
2060,-0.0114,7.83405
2061,-0.01139,7.83405
2062,-0.01138,7.83405
2063,-0.01137,7.83405
2064,-0.01136,7.83405
2065,-0.01135,7.83405
2066,-0.01134,7.83405
2067,-0.01133,7.83405
2068,-0.01132,7.83405
2069,-0.01131,7.83405
2070,-0.0113,7.83405
2071,-0.01129,7.83405
2072,-0.01128,7.83405
2073,-0.01127,7.83405
2074,-0.01126,7.83405
2075,-0.01125,7.83405
2076,-0.01124,7.83405
2077,-0.01123,7.83405
2078,-0.01122,7.83405
2079,-0.01121,7.83405
2080,-0.0112,7.83405
2081,-0.01119,7.83405
2082,-0.01118,7.83405
2083,-0.01117,7.83405
2084,-0.01116,7.80064
2085,-0.01115,7.83405
2086,-0.01114,7.80064
2087,-0.01113,7.81734
2088,-0.01112,7.81734
2089,-0.01111,7.80064
2090,-0.0111,7.83405
2091,-0.01109,7.83405
2092,-0.01108,7.81734
2093,-0.01107,7.81734
2094,-0.01106,7.81734
2095,-0.01105,7.81734
2096,-0.01104,7.81734
2097,-0.01103,7.81734
2098,-0.01102,7.81734
2099,-0.01101,7.81734
2100,-0.011,7.81734
2101,-0.01099,7.80064
2102,-0.01098,7.83405
2103,-0.01097,7.81734
2104,-0.01096,7.81734
2105,-0.01095,7.83405
2106,-0.01094,7.80064
2107,-0.01093,7.81734
2108,-0.01092,7.81734
2109,-0.01091,7.81734
2110,-0.0109,7.81734
2111,-0.01089,7.81734
2112,-0.01088,7.80064
2113,-0.01087,7.83405
2114,-0.01086,7.80064
2115,-0.01085,7.81734
2116,-0.01084,7.81734
2117,-0.01083,7.81734
2118,-0.01082,7.81734
2119,-0.01081,7.81734
2120,-0.0108,7.80064
2121,-0.01079,7.81734
2122,-0.01078,7.81734
2123,-0.01077,7.81734
2124,-0.01076,7.81734
2125,-0.01075,7.81734
2126,-0.01074,7.81734
2127,-0.01073,7.81734
2128,-0.01072,7.81734
2129,-0.01071,7.81734
2130,-0.0107,7.81734
2131,-0.01069,7.81734
2132,-0.01068,7.80064
2133,-0.01067,7.81734
2134,-0.01066,7.81734
2135,-0.01065,7.81734
2136,-0.01064,7.81734
2137,-0.01063,7.81734
2138,-0.01062,7.81734
2139,-0.01061,7.81734
2140,-0.0106,7.81734
2141,-0.01059,7.81734
2142,-0.01058,7.81734
2143,-0.01057,7.81734
2144,-0.01056,7.81734
2145,-0.01055,7.81734
2146,-0.01054,7.81734
2147,-0.01053,7.81734
2148,-0.01052,7.81734
2149,-0.01051,7.81734
2150,-0.0105,7.81734
2151,-0.01049,7.81734
2152,-0.01048,7.81734
2153,-0.01047,7.80064
2154,-0.01046,7.81734
2155,-0.01045,7.81734
2156,-0.01044,7.81734
2157,-0.01043,7.81734
2158,-0.01042,7.81734
2159,-0.01041,7.81734
2160,-0.0104,7.81734
2161,-0.01039,7.81734
2162,-0.01038,7.81734
2163,-0.01037,7.81734
2164,-0.01036,7.81734
2165,-0.01035,7.80064
2166,-0.01034,7.83405
2167,-0.01033,7.83405
2168,-0.01032,7.83405
2169,-0.01031,7.83405
2170,-0.0103,7.85075
2171,-0.01029,7.85075
2172,-0.01028,7.85075
2173,-0.01027,7.88416
2174,-0.01026,7.88416
2175,-0.01025,7.88416
2176,-0.01024,7.90086
2177,-0.01023,7.90086
2178,-0.01022,7.88416
2179,-0.01021,7.91756
2180,-0.0102,7.91756
2181,-0.01019,7.91756
2182,-0.01018,7.91756
2183,-0.01017,7.93427
2184,-0.01016,7.91756
2185,-0.01015,7.95097
2186,-0.01014,7.95097
2187,-0.01013,7.95097
2188,-0.01012,7.95097
2189,-0.01011,7.96768
2190,-0.0101,7.96768
2191,-0.01009,7.96768
2192,-0.01008,7.96768
2193,-0.01007,7.98438
2194,-0.01006,7.98438
2195,-0.01005,7.98438
2196,-0.01004,7.98438
2197,-0.01003,7.98438
2198,-0.01002,7.98438
2199,-0.01001,7.98438
2200,-0.01,7.98438
2201,-0.00999,7.98438
2202,-0.00998,7.98438
2203,-0.00997,7.98438
2204,-0.00996,7.98438
2205,-0.00995,7.98438
2206,-0.00994,7.98438
2207,-0.00993,7.98438
2208,-0.00992,7.98438
2209,-0.00991,7.98438
2210,-0.0099,7.98438
2211,-0.00989,7.98438
2212,-0.00988,7.98438
2213,-0.00987,7.98438
2214,-0.00986,7.98438
2215,-0.00985,7.95097
2216,-0.00984,7.96768
2217,-0.00983,7.95097
2218,-0.00982,7.98438
2219,-0.00981,7.96768
2220,-0.0098,7.96768
2221,-0.00979,7.96768
2222,-0.00978,7.96768
2223,-0.00977,7.96768
2224,-0.00976,7.96768
2225,-0.00975,7.96768
2226,-0.00974,7.96768
2227,-0.00973,7.96768
2228,-0.00972,7.96768
2229,-0.00971,7.96768
2230,-0.0097,7.98438
2231,-0.00969,7.98438
2232,-0.00968,7.96768
2233,-0.00967,7.98438
2234,-0.00966,7.98438
2235,-0.00965,7.95097
2236,-0.00964,7.98438
2237,-0.00963,7.98438
2238,-0.00962,7.98438
2239,-0.00961,7.98438
2240,-0.0096,7.96768
2241,-0.00959,7.96768
2242,-0.00958,7.96768
2243,-0.00957,7.96768
2244,-0.00956,7.96768
2245,-0.00955,7.96768
2246,-0.00954,7.96768
2247,-0.00953,7.98438
2248,-0.00952,7.98438
2249,-0.00951,7.96768
2250,-0.0095,7.96768
2251,-0.00949,7.96768
2252,-0.00948,7.96768
2253,-0.00947,7.96768
2254,-0.00946,7.96768
2255,-0.00945,7.96768
2256,-0.00944,7.95097
2257,-0.00943,7.98438
2258,-0.00942,7.95097
2259,-0.00941,7.96768
2260,-0.0094,7.96768
2261,-0.00939,7.96768
2262,-0.00938,7.96768
2263,-0.00937,7.96768
2264,-0.00936,7.96768
2265,-0.00935,7.96768
2266,-0.00934,7.96768
2267,-0.00933,7.96768
2268,-0.00932,7.96768
2269,-0.00931,7.96768
2270,-0.0093,7.96768
2271,-0.00929,7.96768
2272,-0.00928,7.96768
2273,-0.00927,7.96768
2274,-0.00926,7.96768
2275,-0.00925,7.96768
2276,-0.00924,7.96768
2277,-0.00923,7.96768
2278,-0.00922,7.96768
2279,-0.00921,7.96768
2280,-0.0092,7.96768
2281,-0.00919,7.96768
2282,-0.00918,7.96768
2283,-0.00917,7.96768
2284,-0.00916,7.96768
2285,-0.00915,7.96768
2286,-0.00914,7.96768
2287,-0.00913,7.96768
2288,-0.00912,7.96768
2289,-0.00911,7.96768
2290,-0.0091,7.96768
2291,-0.00909,7.96768
2292,-0.00908,7.96768
2293,-0.00907,7.96768
2294,-0.00906,7.96768
2295,-0.00905,7.96768
2296,-0.00904,7.96768
2297,-0.00903,7.96768
2298,-0.00902,7.96768
2299,-0.00901,7.96768
2300,-0.009,7.96768
2301,-0.00899,7.96768
2302,-0.00898,7.96768
2303,-0.00897,7.96768
2304,-0.00896,7.96768
2305,-0.00895,7.96768
2306,-0.00894,7.96768
2307,-0.00893,7.96768
2308,-0.00892,7.96768
2309,-0.00891,7.96768
2310,-0.0089,7.96768
2311,-0.00889,7.96768
2312,-0.00888,7.96768
2313,-0.00887,7.96768
2314,-0.00886,7.96768
2315,-0.00885,7.96768
2316,-0.00884,7.96768
2317,-0.00883,7.96768
2318,-0.00882,7.96768
2319,-0.00881,7.96768
2320,-0.0088,7.96768
2321,-0.00879,7.96768
2322,-0.00878,7.96768
2323,-0.00877,7.96768
2324,-0.00876,7.96768
2325,-0.00875,7.96768
2326,-0.00874,7.96768
2327,-0.00873,7.96768
2328,-0.00872,7.96768
2329,-0.00871,7.96768
2330,-0.0087,7.96768
2331,-0.00869,7.96768
2332,-0.00868,7.96768
2333,-0.00867,7.96768
2334,-0.00866,7.96768
2335,-0.00865,7.96768
2336,-0.00864,7.96768
2337,-0.00863,7.96768
2338,-0.00862,7.96768
2339,-0.00861,7.96768
2340,-0.0086,7.96768
2341,-0.00859,7.96768
2342,-0.00858,7.96768
2343,-0.00857,7.96768
2344,-0.00856,7.96768
2345,-0.00855,7.96768
2346,-0.00854,7.96768
2347,-0.00853,7.96768
2348,-0.00852,7.96768
2349,-0.00851,7.96768
2350,-0.0085,7.96768
2351,-0.00849,7.96768
2352,-0.00848,7.96768
2353,-0.00847,7.96768
2354,-0.00846,7.96768
2355,-0.00845,7.96768
2356,-0.00844,7.96768
2357,-0.00843,7.96768
2358,-0.00842,7.96768
2359,-0.00841,7.96768
2360,-0.0084,7.96768
2361,-0.00839,7.96768
2362,-0.00838,7.96768
2363,-0.00837,7.96768
2364,-0.00836,7.96768
2365,-0.00835,7.96768
2366,-0.00834,7.96768
2367,-0.00833,7.96768
2368,-0.00832,7.96768
2369,-0.00831,7.96768
2370,-0.0083,7.96768
2371,-0.00829,7.96768
2372,-0.00828,7.96768
2373,-0.00827,7.96768
2374,-0.00826,7.96768
2375,-0.00825,7.96768
2376,-0.00824,7.96768
2377,-0.00823,7.96768
2378,-0.00822,7.96768
2379,-0.00821,7.96768
2380,-0.0082,7.96768
2381,-0.00819,7.96768
2382,-0.00818,7.96768
2383,-0.00817,7.96768
2384,-0.00816,7.96768
2385,-0.00815,7.96768
2386,-0.00814,7.96768
2387,-0.00813,7.96768
2388,-0.00812,7.96768
2389,-0.00811,7.96768
2390,-0.0081,7.96768
2391,-0.00809,7.96768
2392,-0.00808,7.96768
2393,-0.00807,7.96768
2394,-0.00806,7.96768
2395,-0.00805,7.96768
2396,-0.00804,7.96768
2397,-0.00803,7.96768
2398,-0.00802,7.96768
2399,-0.00801,7.96768
2400,-0.008,7.96768
2401,-0.00799,7.96768
2402,-0.00798,7.96768
2403,-0.00797,7.96768
2404,-0.00796,7.96768
2405,-0.00795,7.96768
2406,-0.00794,7.96768
2407,-0.00793,7.96768
2408,-0.00792,7.96768
2409,-0.00791,7.96768
2410,-0.0079,7.96768
2411,-0.00789,7.96768
2412,-0.00788,7.96768
2413,-0.00787,7.96768
2414,-0.00786,7.96768
2415,-0.00785,7.96768
2416,-0.00784,7.96768
2417,-0.00783,7.96768
2418,-0.00782,7.96768
2419,-0.00781,7.96768
2420,-0.0078,7.96768
2421,-0.00779,7.96768
2422,-0.00778,7.96768
2423,-0.00777,7.96768
2424,-0.00776,7.96768
2425,-0.00775,7.96768
2426,-0.00774,7.96768
2427,-0.00773,7.96768
2428,-0.00772,7.96768
2429,-0.00771,7.96768
2430,-0.0077,7.96768
2431,-0.00769,7.96768
2432,-0.00768,7.96768
2433,-0.00767,7.96768
2434,-0.00766,7.96768
2435,-0.00765,7.96768
2436,-0.00764,7.96768
2437,-0.00763,7.96768
2438,-0.00762,7.96768
2439,-0.00761,7.96768
2440,-0.0076,7.96768
2441,-0.00759,7.96768
2442,-0.00758,7.96768
2443,-0.00757,7.96768
2444,-0.00756,7.96768
2445,-0.00755,7.96768
2446,-0.00754,7.96768
2447,-0.00753,7.96768
2448,-0.00752,7.96768
2449,-0.00751,7.96768
2450,-0.0075,7.96768
2451,-0.00749,7.96768
2452,-0.00748,7.96768
2453,-0.00747,7.96768
2454,-0.00746,7.96768
2455,-0.00745,7.96768
2456,-0.00744,7.96768
2457,-0.00743,7.96768
2458,-0.00742,7.96768
2459,-0.00741,7.96768
2460,-0.0074,7.96768
2461,-0.00739,7.96768
2462,-0.00738,7.96768
2463,-0.00737,7.96768
2464,-0.00736,7.96768
2465,-0.00735,7.96768
2466,-0.00734,7.96768
2467,-0.00733,7.96768
2468,-0.00732,7.96768
2469,-0.00731,7.96768
2470,-0.0073,7.96768
2471,-0.00729,7.96768
2472,-0.00728,7.96768
2473,-0.00727,7.96768
2474,-0.00726,7.96768
2475,-0.00725,7.96768
2476,-0.00724,7.96768
2477,-0.00723,7.96768
2478,-0.00722,7.96768
2479,-0.00721,7.96768
2480,-0.0072,7.96768
2481,-0.00719,7.96768
2482,-0.00718,7.96768
2483,-0.00717,7.96768
2484,-0.00716,7.96768
2485,-0.00715,7.96768
2486,-0.00714,7.95097
2487,-0.00713,7.96768
2488,-0.00712,7.96768
2489,-0.00711,7.96768
2490,-0.0071,7.96768
2491,-0.00709,7.95097
2492,-0.00708,7.93427
2493,-0.00707,7.96768
2494,-0.00706,7.95097
2495,-0.00705,7.95097
2496,-0.00704,7.95097
2497,-0.00703,7.95097
2498,-0.00702,7.95097
2499,-0.00701,7.95097
2500,-0.007,7.93427
2501,-0.00699,7.96768
2502,-0.00698,7.93427
2503,-0.00697,7.95097
2504,-0.00696,7.95097
2505,-0.00695,7.95097
2506,-0.00694,7.95097
2507,-0.00693,7.95097
2508,-0.00692,7.95097
2509,-0.00691,7.95097
2510,-0.0069,7.95097
2511,-0.00689,7.95097
2512,-0.00688,7.95097
2513,-0.00687,7.95097
2514,-0.00686,7.95097
2515,-0.00685,7.95097
2516,-0.00684,7.95097
2517,-0.00683,7.95097
2518,-0.00682,7.95097
2519,-0.00681,7.95097
2520,-0.0068,7.95097
2521,-0.00679,7.95097
2522,-0.00678,7.95097
2523,-0.00677,7.95097
2524,-0.00676,7.95097
2525,-0.00675,7.95097
2526,-0.00674,7.95097
2527,-0.00673,7.95097
2528,-0.00672,7.95097
2529,-0.00671,7.95097
2530,-0.0067,7.95097
2531,-0.00669,7.95097
2532,-0.00668,7.95097
2533,-0.00667,7.96768
2534,-0.00666,7.93427
2535,-0.00665,7.95097
2536,-0.00664,7.95097
2537,-0.00663,7.95097
2538,-0.00662,7.95097
2539,-0.00661,7.95097
2540,-0.0066,7.95097
2541,-0.00659,7.95097
2542,-0.00658,7.95097
2543,-0.00657,7.95097
2544,-0.00656,7.95097
2545,-0.00655,7.95097
2546,-0.00654,7.95097
2547,-0.00653,7.95097
2548,-0.00652,7.95097
2549,-0.00651,7.95097
2550,-0.0065,7.95097
2551,-0.00649,7.95097
2552,-0.00648,7.95097
2553,-0.00647,7.95097
2554,-0.00646,7.95097
2555,-0.00645,7.95097
2556,-0.00644,7.95097
2557,-0.00643,7.95097
2558,-0.00642,7.95097
2559,-0.00641,7.95097
2560,-0.0064,7.95097
2561,-0.00639,7.95097
2562,-0.00638,7.95097
2563,-0.00637,7.95097
2564,-0.00636,7.95097
2565,-0.00635,7.95097
2566,-0.00634,7.95097
2567,-0.00633,7.95097
2568,-0.00632,7.95097
2569,-0.00631,7.95097
2570,-0.0063,7.95097
2571,-0.00629,7.95097
2572,-0.00628,7.95097
2573,-0.00627,7.95097
2574,-0.00626,7.95097
2575,-0.00625,7.95097
2576,-0.00624,7.95097
2577,-0.00623,7.95097
2578,-0.00622,7.95097
2579,-0.00621,7.95097
2580,-0.0062,7.95097
2581,-0.00619,7.95097
2582,-0.00618,7.95097
2583,-0.00617,7.95097
2584,-0.00616,7.95097
2585,-0.00615,7.95097
2586,-0.00614,7.95097
2587,-0.00613,7.95097
2588,-0.00612,7.95097
2589,-0.00611,7.95097
2590,-0.0061,7.95097
2591,-0.00609,7.95097
2592,-0.00608,7.95097
2593,-0.00607,7.95097
2594,-0.00606,7.95097
2595,-0.00605,7.95097
2596,-0.00604,7.95097
2597,-0.00603,7.95097
2598,-0.00602,7.95097
2599,-0.00601,7.91756
2600,-0.006,7.88416
2601,-0.00599,7.90086
2602,-0.00598,7.90086
2603,-0.00597,7.90086
2604,-0.00596,7.90086
2605,-0.00595,7.90086
2606,-0.00594,7.90086
2607,-0.00593,7.90086
2608,-0.00592,7.90086
2609,-0.00591,7.90086
2610,-0.0059,7.90086
2611,-0.00589,7.90086
2612,-0.00588,7.90086
2613,-0.00587,7.90086
2614,-0.00586,7.90086
2615,-0.00585,7.90086
2616,-0.00584,7.90086
2617,-0.00583,7.90086
2618,-0.00582,7.90086
2619,-0.00581,7.90086
2620,-0.0058,7.90086
2621,-0.00579,7.90086
2622,-0.00578,7.90086
2623,-0.00577,7.90086
2624,-0.00576,7.90086
2625,-0.00575,7.90086
2626,-0.00574,7.90086
2627,-0.00573,7.90086
2628,-0.00572,7.90086
2629,-0.00571,7.90086
2630,-0.0057,7.90086
2631,-0.00569,7.90086
2632,-0.00568,7.90086
2633,-0.00567,7.90086
2634,-0.00566,7.90086
2635,-0.00565,7.90086
2636,-0.00564,7.90086
2637,-0.00563,7.90086
2638,-0.00562,7.90086
2639,-0.00561,7.90086
2640,-0.0056,7.90086
2641,-0.00559,7.90086
2642,-0.00558,7.90086
2643,-0.00557,7.90086
2644,-0.00556,7.90086
2645,-0.00555,7.90086
2646,-0.00554,7.90086
2647,-0.00553,7.90086
2648,-0.00552,7.90086
2649,-0.00551,7.90086
2650,-0.0055,7.90086
2651,-0.00549,7.90086
2652,-0.00548,7.90086
2653,-0.00547,7.90086
2654,-0.00546,7.90086
2655,-0.00545,7.90086
2656,-0.00544,7.90086
2657,-0.00543,7.90086
2658,-0.00542,7.90086
2659,-0.00541,7.90086
2660,-0.0054,7.90086
2661,-0.00539,7.90086
2662,-0.00538,7.90086
2663,-0.00537,7.90086
2664,-0.00536,7.90086
2665,-0.00535,7.90086
2666,-0.00534,7.90086
2667,-0.00533,7.90086
2668,-0.00532,7.90086
2669,-0.00531,7.90086
2670,-0.0053,7.90086
2671,-0.00529,7.90086
2672,-0.00528,7.90086
2673,-0.00527,7.90086
2674,-0.00526,7.90086
2675,-0.00525,7.90086
2676,-0.00524,7.90086
2677,-0.00523,7.90086
2678,-0.00522,7.90086
2679,-0.00521,7.90086
2680,-0.0052,7.90086
2681,-0.00519,7.90086
2682,-0.00518,7.90086
2683,-0.00517,7.90086
2684,-0.00516,7.90086
2685,-0.00515,7.90086
2686,-0.00514,7.90086
2687,-0.00513,7.90086
2688,-0.00512,7.90086
2689,-0.00511,7.90086
2690,-0.0051,7.90086
2691,-0.00509,7.90086
2692,-0.00508,7.90086
2693,-0.00507,7.90086
2694,-0.00506,7.90086
2695,-0.00505,7.90086
2696,-0.00504,7.90086
2697,-0.00503,7.90086
2698,-0.00502,7.90086
2699,-0.00501,7.90086
2700,-0.005,7.90086
2701,-0.00499,7.90086
2702,-0.00498,7.90086
2703,-0.00497,7.90086
2704,-0.00496,7.90086
2705,-0.00495,7.90086
2706,-0.00494,7.90086
2707,-0.00493,7.90086
2708,-0.00492,7.90086
2709,-0.00491,7.90086
2710,-0.0049,7.90086
2711,-0.00489,7.90086
2712,-0.00488,7.90086
2713,-0.00487,7.90086
2714,-0.00486,7.90086
2715,-0.00485,7.90086
2716,-0.00484,7.90086
2717,-0.00483,7.90086
2718,-0.00482,7.90086
2719,-0.00481,7.90086
2720,-0.0048,7.90086
2721,-0.00479,7.90086
2722,-0.00478,7.90086
2723,-0.00477,7.90086
2724,-0.00476,7.90086
2725,-0.00475,7.90086
2726,-0.00474,7.90086
2727,-0.00473,7.90086
2728,-0.00472,7.90086
2729,-0.00471,7.90086
2730,-0.0047,7.90086
2731,-0.00469,7.90086
2732,-0.00468,7.90086
2733,-0.00467,7.90086
2734,-0.00466,7.90086
2735,-0.00465,7.90086
2736,-0.00464,7.90086
2737,-0.00463,7.90086
2738,-0.00462,7.90086
2739,-0.00461,7.90086
2740,-0.0046,7.90086
2741,-0.00459,7.90086
2742,-0.00458,7.90086
2743,-0.00457,7.90086
2744,-0.00456,7.90086
2745,-0.00455,7.90086
2746,-0.00454,7.90086
2747,-0.00453,7.90086
2748,-0.00452,7.90086
2749,-0.00451,7.90086
2750,-0.0045,7.90086
2751,-0.00449,7.90086
2752,-0.00448,7.90086
2753,-0.00447,7.90086
2754,-0.00446,7.90086
2755,-0.00445,7.90086
2756,-0.00444,7.90086
2757,-0.00443,7.90086
2758,-0.00442,7.90086
2759,-0.00441,7.90086
2760,-0.0044,7.90086
2761,-0.00439,7.90086
2762,-0.00438,7.90086
2763,-0.00437,7.90086
2764,-0.00436,7.90086
2765,-0.00435,7.90086
2766,-0.00434,7.90086
2767,-0.00433,7.90086
2768,-0.00432,7.90086
2769,-0.00431,7.90086
2770,-0.0043,7.90086
2771,-0.00429,7.90086
2772,-0.00428,7.90086
2773,-0.00427,7.90086
2774,-0.00426,7.90086
2775,-0.00425,7.90086
2776,-0.00424,7.90086
2777,-0.00423,7.90086
2778,-0.00422,7.90086
2779,-0.00421,7.90086
2780,-0.0042,7.90086
2781,-0.00419,7.90086
2782,-0.00418,7.90086
2783,-0.00417,7.90086
2784,-0.00416,7.90086
2785,-0.00415,7.90086
2786,-0.00414,7.90086
2787,-0.00413,7.90086
2788,-0.00412,7.90086
2789,-0.00411,7.90086
2790,-0.0041,7.90086
2791,-0.00409,7.90086
2792,-0.00408,7.90086
2793,-0.00407,7.90086
2794,-0.00406,7.90086
2795,-0.00405,7.90086
2796,-0.00404,7.90086
2797,-0.00403,7.90086
2798,-0.00402,7.90086
2799,-0.00401,7.90086
2800,-0.004,7.90086
2801,-0.00399,7.90086
2802,-0.00398,7.90086
2803,-0.00397,7.90086
2804,-0.00396,7.90086
2805,-0.00395,7.90086
2806,-0.00394,7.90086
2807,-0.00393,7.90086
2808,-0.00392,7.90086
2809,-0.00391,7.90086
2810,-0.0039,7.90086
2811,-0.00389,7.90086
2812,-0.00388,7.90086
2813,-0.00387,7.90086
2814,-0.00386,7.90086
2815,-0.00385,7.90086
2816,-0.00384,7.90086
2817,-0.00383,7.90086
2818,-0.00382,7.90086
2819,-0.00381,7.90086
2820,-0.0038,7.90086
2821,-0.00379,7.90086
2822,-0.00378,7.90086
2823,-0.00377,7.90086
2824,-0.00376,7.90086
2825,-0.00375,7.90086
2826,-0.00374,7.90086
2827,-0.00373,7.90086
2828,-0.00372,7.90086
2829,-0.00371,7.90086
2830,-0.0037,7.88416
2831,-0.00369,7.90086
2832,-0.00368,7.90086
2833,-0.00367,7.90086
2834,-0.00366,7.90086
2835,-0.00365,7.90086
2836,-0.00364,7.85075
2837,-0.00363,7.88416
2838,-0.00362,7.85075
2839,-0.00361,7.90086
2840,-0.0036,7.88416
2841,-0.00359,7.88416
2842,-0.00358,7.88416
2843,-0.00357,7.90086
2844,-0.00356,7.85075
2845,-0.00355,7.88416
2846,-0.00354,7.88416
2847,-0.00353,7.90086
2848,-0.00352,7.90086
2849,-0.00351,7.90086
2850,-0.0035,7.85075
2851,-0.00349,7.90086
2852,-0.00348,7.85075
2853,-0.00347,7.88416
2854,-0.00346,7.88416
2855,-0.00345,7.88416
2856,-0.00344,7.88416
2857,-0.00343,7.90086
2858,-0.00342,7.85075
2859,-0.00341,7.88416
2860,-0.0034,7.90086
2861,-0.00339,7.90086
2862,-0.00338,7.88416
2863,-0.00337,7.88416
2864,-0.00336,7.88416
2865,-0.00335,7.85075
2866,-0.00334,7.90086
2867,-0.00333,7.88416
2868,-0.00332,7.88416
2869,-0.00331,7.88416
2870,-0.0033,7.88416
2871,-0.00329,7.88416
2872,-0.00328,7.88416
2873,-0.00327,7.88416
2874,-0.00326,7.88416
2875,-0.00325,7.88416
2876,-0.00324,7.88416
2877,-0.00323,7.88416
2878,-0.00322,7.90086
2879,-0.00321,7.85075
2880,-0.0032,7.88416
2881,-0.00319,7.88416
2882,-0.00318,7.88416
2883,-0.00317,7.88416
2884,-0.00316,7.88416
2885,-0.00315,7.88416
2886,-0.00314,7.88416
2887,-0.00313,7.88416
2888,-0.00312,7.88416
2889,-0.00311,7.88416
2890,-0.0031,7.88416
2891,-0.00309,7.88416
2892,-0.00308,7.88416
2893,-0.00307,7.88416
2894,-0.00306,7.88416
2895,-0.00305,7.88416
2896,-0.00304,7.88416
2897,-0.00303,7.88416
2898,-0.00302,7.88416
2899,-0.00301,7.88416
2900,-0.003,7.88416
2901,-0.00299,7.88416
2902,-0.00298,7.88416
2903,-0.00297,7.88416
2904,-0.00296,7.88416
2905,-0.00295,7.88416
2906,-0.00294,7.88416
2907,-0.00293,7.88416
2908,-0.00292,7.88416
2909,-0.00291,7.88416
2910,-0.0029,7.88416
2911,-0.00289,7.88416
2912,-0.00288,7.88416
2913,-0.00287,7.88416
2914,-0.00286,7.88416
2915,-0.00285,7.88416
2916,-0.00284,7.88416
2917,-0.00283,7.88416
2918,-0.00282,7.88416
2919,-0.00281,7.88416
2920,-0.0028,7.88416
2921,-0.00279,7.88416
2922,-0.00278,7.88416
2923,-0.00277,7.88416
2924,-0.00276,7.88416
2925,-0.00275,7.88416
2926,-0.00274,7.88416
2927,-0.00273,7.88416
2928,-0.00272,7.88416
2929,-0.00271,7.88416
2930,-0.0027,7.88416
2931,-0.00269,7.88416
2932,-0.00268,7.88416
2933,-0.00267,7.88416
2934,-0.00266,7.88416
2935,-0.00265,7.88416
2936,-0.00264,7.88416
2937,-0.00263,7.88416
2938,-0.00262,7.88416
2939,-0.00261,7.88416
2940,-0.0026,7.88416
2941,-0.00259,7.88416
2942,-0.00258,7.88416
2943,-0.00257,7.88416
2944,-0.00256,7.88416
2945,-0.00255,7.88416
2946,-0.00254,7.88416
2947,-0.00253,7.88416
2948,-0.00252,7.88416
2949,-0.00251,7.88416
2950,-0.0025,7.88416
2951,-0.00249,7.88416
2952,-0.00248,7.88416
2953,-0.00247,7.88416
2954,-0.00246,7.88416
2955,-0.00245,7.88416
2956,-0.00244,7.88416
2957,-0.00243,7.88416
2958,-0.00242,7.88416
2959,-0.00241,7.88416
2960,-0.0024,7.88416
2961,-0.00239,7.88416
2962,-0.00238,7.88416
2963,-0.00237,7.88416
2964,-0.00236,7.88416
2965,-0.00235,7.88416
2966,-0.00234,7.88416
2967,-0.00233,7.88416
2968,-0.00232,7.88416
2969,-0.00231,7.88416
2970,-0.0023,7.88416
2971,-0.00229,7.88416
2972,-0.00228,7.88416
2973,-0.00227,7.88416
2974,-0.00226,7.88416
2975,-0.00225,7.88416
2976,-0.00224,7.88416
2977,-0.00223,7.88416
2978,-0.00222,7.88416
2979,-0.00221,7.88416
2980,-0.0022,7.88416
2981,-0.00219,7.88416
2982,-0.00218,7.88416
2983,-0.00217,7.88416
2984,-0.00216,7.88416
2985,-0.00215,7.88416
2986,-0.00214,7.88416
2987,-0.00213,7.88416
2988,-0.00212,7.88416
2989,-0.00211,7.88416
2990,-0.0021,7.88416
2991,-0.00209,7.88416
2992,-0.00208,7.88416
2993,-0.00207,7.88416
2994,-0.00206,7.88416
2995,-0.00205,7.88416
2996,-0.00204,7.88416
2997,-0.00203,7.88416
2998,-0.00202,7.88416
2999,-0.00201,7.88416
3000,-0.002,7.88416
3001,-0.00199,7.88416
3002,-0.00198,7.88416
3003,-0.00197,7.88416
3004,-0.00196,7.88416
3005,-0.00195,7.88416
3006,-0.00194,7.88416
3007,-0.00193,7.88416
3008,-0.00192,7.88416
3009,-0.00191,7.88416
3010,-0.0019,7.88416
3011,-0.00189,7.88416
3012,-0.00188,7.88416
3013,-0.00187,7.88416
3014,-0.00186,7.88416
3015,-0.00185,7.88416
3016,-0.00184,7.88416
3017,-0.00183,7.88416
3018,-0.00182,7.88416
3019,-0.00181,7.88416
3020,-0.0018,7.88416
3021,-0.00179,7.88416
3022,-0.00178,7.88416
3023,-0.00177,7.88416
3024,-0.00176,7.88416
3025,-0.00175,7.88416
3026,-0.00174,7.88416
3027,-0.00173,7.88416
3028,-0.00172,7.88416
3029,-0.00171,7.88416
3030,-0.0017,7.88416
3031,-0.00169,7.88416
3032,-0.00168,7.88416
3033,-0.00167,7.88416
3034,-0.00166,7.88416
3035,-0.00165,7.88416
3036,-0.00164,7.88416
3037,-0.00163,7.88416
3038,-0.00162,7.88416
3039,-0.00161,7.88416
3040,-0.0016,7.88416
3041,-0.00159,7.88416
3042,-0.00158,7.88416
3043,-0.00157,7.88416
3044,-0.00156,7.88416
3045,-0.00155,7.88416
3046,-0.00154,7.88416
3047,-0.00153,7.88416
3048,-0.00152,7.88416
3049,-0.00151,7.88416
3050,-0.0015,7.88416
3051,-0.00149,7.88416
3052,-0.00148,7.88416
3053,-0.00147,7.88416
3054,-0.00146,7.88416
3055,-0.00145,7.88416
3056,-0.00144,7.88416
3057,-0.00143,7.88416
3058,-0.00142,7.88416
3059,-0.00141,7.88416
3060,-0.0014,7.88416
3061,-0.00139,7.88416
3062,-0.00138,7.88416
3063,-0.00137,7.88416
3064,-0.00136,7.88416
3065,-0.00135,7.88416
3066,-0.00134,7.88416
3067,-0.00133,7.88416
3068,-0.00132,7.88416
3069,-0.00131,7.85075
3070,-0.0013,7.88416
3071,-0.00129,7.88416
3072,-0.00128,7.88416
3073,-0.00127,7.88416
3074,-0.00126,7.88416
3075,-0.00125,7.88416
3076,-0.00124,7.88416
3077,-0.00123,7.88416
3078,-0.00122,7.83405
3079,-0.00121,7.88416
3080,-0.0012,7.88416
3081,-0.00119,7.88416
3082,-0.00118,7.88416
3083,-0.00117,7.88416
3084,-0.00116,7.88416
3085,-0.00115,7.88416
3086,-0.00114,7.88416
3087,-0.00113,7.88416
3088,-0.00112,7.88416
3089,-0.00111,7.88416
3090,-0.0011,7.88416
3091,-0.00109,7.88416
3092,-0.00108,7.88416
3093,-0.00107,7.88416
3094,-0.00106,7.88416
3095,-0.00105,7.88416
3096,-0.00104,7.88416
3097,-0.00103,7.88416
3098,-0.00102,7.88416
3099,-0.00101,7.85075
3100,-0.001,7.88416
3101,-0.00099,7.85075
3102,-0.00098,7.85075
3103,-0.00097,7.88416
3104,-0.00096,7.88416
3105,-0.00095,7.88416
3106,-0.00094,7.88416
3107,-0.00093,7.88416
3108,-0.00092,7.83405
3109,-0.00091,7.85075
3110,-0.0009,7.85075
3111,-0.00089,7.88416
3112,-0.00088,7.83405
3113,-0.00087,7.85075
3114,-0.00086,7.85075
3115,-0.00085,7.85075
3116,-0.00084,7.85075
3117,-0.00083,7.85075
3118,-0.00082,7.85075
3119,-0.00081,7.85075
3120,-0.0008,7.85075
3121,-0.00079,7.85075
3122,-0.00078,7.85075
3123,-0.00077,7.85075
3124,-0.00076,7.85075
3125,-0.00075,7.85075
3126,-0.00074,7.85075
3127,-0.00073,7.85075
3128,-0.00072,7.85075
3129,-0.00071,7.85075
3130,-0.0007,7.85075
3131,-0.00069,7.85075
3132,-0.00068,7.85075
3133,-0.00067,7.85075
3134,-0.00066,7.85075
3135,-0.00065,7.85075
3136,-0.00064,7.85075
3137,-0.00063,7.85075
3138,-0.00062,7.85075
3139,-0.00061,7.85075
3140,-0.0006,7.85075
3141,-0.00059,7.83405
3142,-0.00058,7.88416
3143,-0.00057,7.85075
3144,-0.00056,7.85075
3145,-0.00055,7.85075
3146,-0.00054,7.85075
3147,-0.00053,7.85075
3148,-0.00052,7.85075
3149,-0.00051,7.85075
3150,-0.0005,7.85075
3151,-0.00049,7.85075
3152,-0.00048,7.85075
3153,-0.00047,7.85075
3154,-0.00046,7.85075
3155,-0.00045,7.85075
3156,-0.00044,7.85075
3157,-0.00043,7.85075
3158,-0.00042,7.85075
3159,-0.00041,7.85075
3160,-0.0004,7.85075
3161,-0.00039,7.85075
3162,-0.00038,7.85075
3163,-0.00037,7.85075
3164,-0.00036,7.85075
3165,-0.00035,7.85075
3166,-0.00034,7.85075
3167,-0.00033,7.85075
3168,-0.00032,7.85075
3169,-0.00031,7.85075
3170,-0.0003,7.85075
3171,-0.00029,7.85075
3172,-0.00028,7.85075
3173,-0.00027,7.85075
3174,-0.00026,7.85075
3175,-0.00025,7.85075
3176,-0.00024,7.85075
3177,-0.00023,7.85075
3178,-0.00022,7.85075
3179,-0.00021,7.85075
3180,-0.0002,7.85075
3181,-0.00019,7.85075
3182,-0.00018,7.85075
3183,-0.00017,7.85075
3184,-0.00016,7.85075
3185,-0.00015,7.85075
3186,-0.00014,7.85075
3187,-0.00013,7.85075
3188,-0.00012,7.85075
3189,-0.00011,7.85075
3190,-0.0001,7.85075
3191,-9e-05,7.85075
3192,-8e-05,7.85075
3193,-7e-05,7.85075
3194,-6e-05,7.85075
3195,-5e-05,7.85075
3196,-4e-05,7.85075
3197,-3e-05,7.85075
3198,-2e-05,7.85075
3199,-1e-05,7.85075
3200,0,7.85075
3201,1e-05,7.85075
3202,2e-05,7.85075
3203,3e-05,7.85075
3204,4e-05,7.85075
3205,5e-05,7.85075
3206,6e-05,7.85075
3207,7e-05,7.85075
3208,8e-05,7.85075
3209,9e-05,7.85075
3210,0.0001,7.85075
3211,0.00011,7.85075
3212,0.00012,7.85075
3213,0.00013,7.85075
3214,0.00014,7.85075
3215,0.00015,7.85075
3216,0.00016,7.85075
3217,0.00017,7.85075
3218,0.00018,7.85075
3219,0.00019,7.85075
3220,0.0002,7.85075
3221,0.00021,7.85075
3222,0.00022,7.85075
3223,0.00023,7.85075
3224,0.00024,7.85075
3225,0.00025,7.85075
3226,0.00026,7.85075
3227,0.00027,7.85075
3228,0.00028,7.85075
3229,0.00029,7.85075
3230,0.0003,7.85075
3231,0.00031,7.85075
3232,0.00032,7.85075
3233,0.00033,7.85075
3234,0.00034,7.85075
3235,0.00035,7.85075
3236,0.00036,7.85075
3237,0.00037,7.85075
3238,0.00038,7.85075
3239,0.00039,7.85075
3240,0.0004,7.85075
3241,0.00041,7.85075
3242,0.00042,7.85075
3243,0.00043,7.85075
3244,0.00044,7.85075
3245,0.00045,7.85075
3246,0.00046,7.85075
3247,0.00047,7.85075
3248,0.00048,7.85075
3249,0.00049,7.85075
3250,0.0005,7.85075
3251,0.00051,7.85075
3252,0.00052,7.85075
3253,0.00053,7.85075
3254,0.00054,7.85075
3255,0.00055,7.85075
3256,0.00056,7.85075
3257,0.00057,7.85075
3258,0.00058,7.85075
3259,0.00059,7.85075
3260,0.0006,7.85075
3261,0.00061,7.85075
3262,0.00062,7.85075
3263,0.00063,7.85075
3264,0.00064,7.85075
3265,0.00065,7.85075
3266,0.00066,7.85075
3267,0.00067,7.85075
3268,0.00068,7.85075
3269,0.00069,7.85075
3270,0.0007,7.85075
3271,0.00071,7.85075
3272,0.00072,7.85075
3273,0.00073,7.85075
3274,0.00074,7.85075
3275,0.00075,7.85075
3276,0.00076,7.85075
3277,0.00077,7.85075
3278,0.00078,7.85075
3279,0.00079,7.85075
3280,0.0008,7.85075
3281,0.00081,7.85075
3282,0.00082,7.85075
3283,0.00083,7.85075
3284,0.00084,7.85075
3285,0.00085,7.85075
3286,0.00086,7.85075
3287,0.00087,7.85075
3288,0.00088,7.85075
3289,0.00089,7.85075
3290,0.0009,7.85075
3291,0.00091,7.85075
3292,0.00092,7.85075
3293,0.00093,7.85075
3294,0.00094,7.85075
3295,0.00095,7.85075
3296,0.00096,7.85075
3297,0.00097,7.85075
3298,0.00098,7.85075
3299,0.00099,7.85075
3300,0.001,7.85075
3301,0.00101,7.85075
3302,0.00102,7.85075
3303,0.00103,7.85075
3304,0.00104,7.85075
3305,0.00105,7.85075
3306,0.00106,7.85075
3307,0.00107,7.85075
3308,0.00108,7.85075
3309,0.00109,7.85075
3310,0.0011,7.85075
3311,0.00111,7.85075
3312,0.00112,7.85075
3313,0.00113,7.85075
3314,0.00114,7.85075
3315,0.00115,7.85075
3316,0.00116,7.85075
3317,0.00117,7.85075
3318,0.00118,7.85075
3319,0.00119,7.85075
3320,0.0012,7.85075
3321,0.00121,7.85075
3322,0.00122,7.85075
3323,0.00123,7.85075
3324,0.00124,7.85075
3325,0.00125,7.85075
3326,0.00126,7.85075
3327,0.00127,7.85075
3328,0.00128,7.85075
3329,0.00129,7.85075
3330,0.0013,7.85075
3331,0.00131,7.85075
3332,0.00132,7.85075
3333,0.00133,7.85075
3334,0.00134,7.85075
3335,0.00135,7.85075
3336,0.00136,7.85075
3337,0.00137,7.85075
3338,0.00138,7.85075
3339,0.00139,7.85075
3340,0.0014,7.85075
3341,0.00141,7.85075
3342,0.00142,7.85075
3343,0.00143,7.85075
3344,0.00144,7.85075
3345,0.00145,7.85075
3346,0.00146,7.85075
3347,0.00147,7.85075
3348,0.00148,7.85075
3349,0.00149,7.85075
3350,0.0015,7.85075
3351,0.00151,7.85075
3352,0.00152,7.85075
3353,0.00153,7.85075
3354,0.00154,7.85075
3355,0.00155,7.83405
3356,0.00156,7.85075
3357,0.00157,7.85075
3358,0.00158,7.83405
3359,0.00159,7.85075
3360,0.0016,7.81734
3361,0.00161,7.83405
3362,0.00162,7.81734
3363,0.00163,7.85075
3364,0.00164,7.85075
3365,0.00165,7.81734
3366,0.00166,7.83405
3367,0.00167,7.83405
3368,0.00168,7.81734
3369,0.00169,7.85075
3370,0.0017,7.83405
3371,0.00171,7.83405
3372,0.00172,7.83405
3373,0.00173,7.83405
3374,0.00174,7.85075
3375,0.00175,7.85075
3376,0.00176,7.81734
3377,0.00177,7.83405
3378,0.00178,7.85075
3379,0.00179,7.81734
3380,0.0018,7.81734
3381,0.00181,7.85075
3382,0.00182,7.83405
3383,0.00183,7.85075
3384,0.00184,7.85075
3385,0.00185,7.83405
3386,0.00186,7.83405
3387,0.00187,7.83405
3388,0.00188,7.83405
3389,0.00189,7.83405
3390,0.0019,7.81734
3391,0.00191,7.85075
3392,0.00192,7.83405
3393,0.00193,7.81734
3394,0.00194,7.83405
3395,0.00195,7.83405
3396,0.00196,7.83405
3397,0.00197,7.83405
3398,0.00198,7.81734
3399,0.00199,7.85075
3400,0.002,7.85075
3401,0.00201,7.83405
3402,0.00202,7.83405
3403,0.00203,7.83405
3404,0.00204,7.83405
3405,0.00205,7.83405
3406,0.00206,7.83405
3407,0.00207,7.83405
3408,0.00208,7.83405
3409,0.00209,7.83405
3410,0.0021,7.83405
3411,0.00211,7.83405
3412,0.00212,7.83405
3413,0.00213,7.83405
3414,0.00214,7.83405
3415,0.00215,7.83405
3416,0.00216,7.83405
3417,0.00217,7.83405
3418,0.00218,7.83405
3419,0.00219,7.83405
3420,0.0022,7.83405
3421,0.00221,7.83405
3422,0.00222,7.83405
3423,0.00223,7.83405
3424,0.00224,7.83405
3425,0.00225,7.83405
3426,0.00226,7.83405
3427,0.00227,7.83405
3428,0.00228,7.83405
3429,0.00229,7.83405
3430,0.0023,7.83405
3431,0.00231,7.83405
3432,0.00232,7.83405
3433,0.00233,7.83405
3434,0.00234,7.83405
3435,0.00235,7.81734
3436,0.00236,7.85075
3437,0.00237,7.83405
3438,0.00238,7.83405
3439,0.00239,7.83405
3440,0.0024,7.83405
3441,0.00241,7.83405
3442,0.00242,7.83405
3443,0.00243,7.83405
3444,0.00244,7.83405
3445,0.00245,7.83405
3446,0.00246,7.83405
3447,0.00247,7.83405
3448,0.00248,7.83405
3449,0.00249,7.83405
3450,0.0025,7.83405
3451,0.00251,7.83405
3452,0.00252,7.83405
3453,0.00253,7.83405
3454,0.00254,7.83405
3455,0.00255,7.83405
3456,0.00256,7.83405
3457,0.00257,7.83405
3458,0.00258,7.83405
3459,0.00259,7.83405
3460,0.0026,7.83405
3461,0.00261,7.83405
3462,0.00262,7.83405
3463,0.00263,7.83405
3464,0.00264,7.83405
3465,0.00265,7.83405
3466,0.00266,7.83405
3467,0.00267,7.83405
3468,0.00268,7.83405
3469,0.00269,7.83405
3470,0.0027,7.83405
3471,0.00271,7.83405
3472,0.00272,7.83405
3473,0.00273,7.83405
3474,0.00274,7.83405
3475,0.00275,7.83405
3476,0.00276,7.83405
3477,0.00277,7.83405
3478,0.00278,7.83405
3479,0.00279,7.83405
3480,0.0028,7.83405
3481,0.00281,7.83405
3482,0.00282,7.83405
3483,0.00283,7.83405
3484,0.00284,7.83405
3485,0.00285,7.83405
3486,0.00286,7.83405
3487,0.00287,7.83405
3488,0.00288,7.83405
3489,0.00289,7.83405
3490,0.0029,7.83405
3491,0.00291,7.83405
3492,0.00292,7.83405
3493,0.00293,7.83405
3494,0.00294,7.83405
3495,0.00295,7.83405
3496,0.00296,7.83405
3497,0.00297,7.83405
3498,0.00298,7.83405
3499,0.00299,7.83405
3500,0.003,7.83405
3501,0.00301,7.83405
3502,0.00302,7.83405
3503,0.00303,7.83405
3504,0.00304,7.83405
3505,0.00305,7.83405
3506,0.00306,7.83405
3507,0.00307,7.83405
3508,0.00308,7.83405
3509,0.00309,7.83405
3510,0.0031,7.83405
3511,0.00311,7.83405
3512,0.00312,7.83405
3513,0.00313,7.83405
3514,0.00314,7.83405
3515,0.00315,7.83405
3516,0.00316,7.83405
3517,0.00317,7.83405
3518,0.00318,7.83405
3519,0.00319,7.83405
3520,0.0032,7.83405
3521,0.00321,7.83405
3522,0.00322,7.83405
3523,0.00323,7.83405
3524,0.00324,7.83405
3525,0.00325,7.83405
3526,0.00326,7.83405
3527,0.00327,7.83405
3528,0.00328,7.83405
3529,0.00329,7.83405
3530,0.0033,7.83405
3531,0.00331,7.83405
3532,0.00332,7.83405
3533,0.00333,7.83405
3534,0.00334,7.83405
3535,0.00335,7.83405
3536,0.00336,7.83405
3537,0.00337,7.83405
3538,0.00338,7.83405
3539,0.00339,7.83405
3540,0.0034,7.83405
3541,0.00341,7.83405
3542,0.00342,7.83405
3543,0.00343,7.83405
3544,0.00344,7.83405
3545,0.00345,7.83405
3546,0.00346,7.83405
3547,0.00347,7.83405
3548,0.00348,7.83405
3549,0.00349,7.83405
3550,0.0035,7.83405
3551,0.00351,7.83405
3552,0.00352,7.83405
3553,0.00353,7.83405
3554,0.00354,7.83405
3555,0.00355,7.83405
3556,0.00356,7.83405
3557,0.00357,7.83405
3558,0.00358,7.83405
3559,0.00359,7.83405
3560,0.0036,7.83405
3561,0.00361,7.83405
3562,0.00362,7.83405
3563,0.00363,7.83405
3564,0.00364,7.83405
3565,0.00365,7.83405
3566,0.00366,7.83405
3567,0.00367,7.83405
3568,0.00368,7.83405
3569,0.00369,7.83405
3570,0.0037,7.83405
3571,0.00371,7.83405
3572,0.00372,7.83405
3573,0.00373,7.83405
3574,0.00374,7.83405
3575,0.00375,7.83405
3576,0.00376,7.83405
3577,0.00377,7.83405
3578,0.00378,7.83405
3579,0.00379,7.83405
3580,0.0038,7.83405
3581,0.00381,7.83405
3582,0.00382,7.83405
3583,0.00383,7.83405
3584,0.00384,7.83405
3585,0.00385,7.83405
3586,0.00386,7.83405
3587,0.00387,7.83405
3588,0.00388,7.83405
3589,0.00389,7.83405
3590,0.0039,7.83405
3591,0.00391,7.83405
3592,0.00392,7.83405
3593,0.00393,7.83405
3594,0.00394,7.83405
3595,0.00395,7.83405
3596,0.00396,7.83405
3597,0.00397,7.83405
3598,0.00398,7.83405
3599,0.00399,7.83405
3600,0.004,7.83405
3601,0.00401,7.83405
3602,0.00402,7.83405
3603,0.00403,7.83405
3604,0.00404,7.83405
3605,0.00405,7.83405
3606,0.00406,7.83405
3607,0.00407,7.83405
3608,0.00408,7.83405
3609,0.00409,7.83405
3610,0.0041,7.83405
3611,0.00411,7.83405
3612,0.00412,7.83405
3613,0.00413,7.83405
3614,0.00414,7.83405
3615,0.00415,7.83405
3616,0.00416,7.81734
3617,0.00417,7.83405
3618,0.00418,7.83405
3619,0.00419,7.83405
3620,0.0042,7.83405
3621,0.00421,7.83405
3622,0.00422,7.83405
3623,0.00423,7.83405
3624,0.00424,7.83405
3625,0.00425,7.83405
3626,0.00426,7.81734
3627,0.00427,7.80064
3628,0.00428,7.83405
3629,0.00429,7.83405
3630,0.0043,7.81734
3631,0.00431,7.83405
3632,0.00432,7.83405
3633,0.00433,7.83405
3634,0.00434,7.83405
3635,0.00435,7.83405
3636,0.00436,7.81734
3637,0.00437,7.83405
3638,0.00438,7.83405
3639,0.00439,7.83405
3640,0.0044,7.83405
3641,0.00441,7.83405
3642,0.00442,7.83405
3643,0.00443,7.81734
3644,0.00444,7.83405
3645,0.00445,7.83405
3646,0.00446,7.83405
3647,0.00447,7.81734
3648,0.00448,7.83405
3649,0.00449,7.83405
3650,0.0045,7.83405
3651,0.00451,7.83405
3652,0.00452,7.83405
3653,0.00453,7.83405
3654,0.00454,7.81734
3655,0.00455,7.80064
3656,0.00456,7.83405
3657,0.00457,7.81734
3658,0.00458,7.83405
3659,0.00459,7.83405
3660,0.0046,7.83405
3661,0.00461,7.83405
3662,0.00462,7.83405
3663,0.00463,7.83405
3664,0.00464,7.83405
3665,0.00465,7.83405
3666,0.00466,7.83405
3667,0.00467,7.81734
3668,0.00468,7.81734
3669,0.00469,7.81734
3670,0.0047,7.81734
3671,0.00471,7.81734
3672,0.00472,7.81734
3673,0.00473,7.81734
3674,0.00474,7.81734
3675,0.00475,7.81734
3676,0.00476,7.81734
3677,0.00477,7.81734
3678,0.00478,7.81734
3679,0.00479,7.81734
3680,0.0048,7.81734
3681,0.00481,7.81734
3682,0.00482,7.81734
3683,0.00483,7.81734
3684,0.00484,7.81734
3685,0.00485,7.81734
3686,0.00486,7.80064
3687,0.00487,7.83405
3688,0.00488,7.83405
3689,0.00489,7.80064
3690,0.0049,7.80064
3691,0.00491,7.83405
3692,0.00492,7.83405
3693,0.00493,7.83405
3694,0.00494,7.83405
3695,0.00495,7.85075
3696,0.00496,7.85075
3697,0.00497,7.83405
3698,0.00498,7.88416
3699,0.00499,7.88416
3700,0.005,7.85075
3701,0.00501,7.90086
3702,0.00502,7.90086
3703,0.00503,7.88416
3704,0.00504,7.91756
3705,0.00505,7.91756
3706,0.00506,7.91756
3707,0.00507,7.91756
3708,0.00508,7.93427
3709,0.00509,7.93427
3710,0.0051,7.91756
3711,0.00511,7.95097
3712,0.00512,7.95097
3713,0.00513,7.93427
3714,0.00514,7.96768
3715,0.00515,7.96768
3716,0.00516,7.96768
3717,0.00517,7.95097
3718,0.00518,7.98438
3719,0.00519,7.98438
3720,0.0052,7.98438
3721,0.00521,7.98438
3722,0.00522,7.98438
3723,0.00523,7.98438
3724,0.00524,7.98438
3725,0.00525,7.98438
3726,0.00526,7.98438
3727,0.00527,7.98438
3728,0.00528,7.98438
3729,0.00529,7.98438
3730,0.0053,7.98438
3731,0.00531,7.98438
3732,0.00532,7.98438
3733,0.00533,7.98438
3734,0.00534,7.98438
3735,0.00535,7.98438
3736,0.00536,7.98438
3737,0.00537,7.98438
3738,0.00538,7.95097
3739,0.00539,7.96768
3740,0.0054,7.98438
3741,0.00541,7.95097
3742,0.00542,7.96768
3743,0.00543,7.96768
3744,0.00544,7.95097
3745,0.00545,7.98438
3746,0.00546,7.98438
3747,0.00547,7.95097
3748,0.00548,7.98438
3749,0.00549,7.96768
3750,0.0055,7.98438
3751,0.00551,7.98438
3752,0.00552,7.96768
3753,0.00553,7.95097
3754,0.00554,7.98438
3755,0.00555,7.98438
3756,0.00556,7.98438
3757,0.00557,7.98438
3758,0.00558,7.98438
3759,0.00559,7.96768
3760,0.0056,7.95097
3761,0.00561,7.98438
3762,0.00562,7.98438
3763,0.00563,7.98438
3764,0.00564,7.96768
3765,0.00565,7.96768
3766,0.00566,7.96768
3767,0.00567,7.96768
3768,0.00568,7.96768
3769,0.00569,7.96768
3770,0.0057,7.96768
3771,0.00571,7.96768
3772,0.00572,7.96768
3773,0.00573,7.96768
3774,0.00574,7.96768
3775,0.00575,7.96768
3776,0.00576,7.96768
3777,0.00577,7.96768
3778,0.00578,7.96768
3779,0.00579,7.96768
3780,0.0058,7.96768
3781,0.00581,7.96768
3782,0.00582,7.98438
3783,0.00583,7.95097
3784,0.00584,7.98438
3785,0.00585,7.95097
3786,0.00586,7.96768
3787,0.00587,7.96768
3788,0.00588,7.96768
3789,0.00589,7.96768
3790,0.0059,7.98438
3791,0.00591,7.96768
3792,0.00592,7.96768
3793,0.00593,7.96768
3794,0.00594,7.96768
3795,0.00595,7.96768
3796,0.00596,7.96768
3797,0.00597,7.96768
3798,0.00598,7.96768
3799,0.00599,7.96768
3800,0.006,7.96768
3801,0.00601,7.96768
3802,0.00602,7.96768
3803,0.00603,7.96768
3804,0.00604,7.96768
3805,0.00605,7.96768
3806,0.00606,7.96768
3807,0.00607,7.96768
3808,0.00608,7.96768
3809,0.00609,7.96768
3810,0.0061,7.96768
3811,0.00611,7.96768
3812,0.00612,7.96768
3813,0.00613,7.96768
3814,0.00614,7.96768
3815,0.00615,7.96768
3816,0.00616,7.96768
3817,0.00617,7.96768
3818,0.00618,7.96768
3819,0.00619,7.96768
3820,0.0062,7.96768
3821,0.00621,7.96768
3822,0.00622,7.96768
3823,0.00623,7.96768
3824,0.00624,7.96768
3825,0.00625,7.96768
3826,0.00626,7.96768
3827,0.00627,7.96768
3828,0.00628,7.96768
3829,0.00629,7.96768
3830,0.0063,7.96768
3831,0.00631,7.96768
3832,0.00632,7.96768
3833,0.00633,7.96768
3834,0.00634,7.96768
3835,0.00635,7.96768
3836,0.00636,7.96768
3837,0.00637,7.96768
3838,0.00638,7.96768
3839,0.00639,7.96768
3840,0.0064,7.96768
3841,0.00641,7.96768
3842,0.00642,7.96768
3843,0.00643,7.96768
3844,0.00644,7.96768
3845,0.00645,7.96768
3846,0.00646,7.96768
3847,0.00647,7.96768
3848,0.00648,7.96768
3849,0.00649,7.96768
3850,0.0065,7.96768
3851,0.00651,7.96768
3852,0.00652,7.96768
3853,0.00653,7.96768
3854,0.00654,7.96768
3855,0.00655,7.96768
3856,0.00656,7.96768
3857,0.00657,7.96768
3858,0.00658,7.96768
3859,0.00659,7.96768
3860,0.0066,7.96768
3861,0.00661,7.96768
3862,0.00662,7.96768
3863,0.00663,7.96768
3864,0.00664,7.96768
3865,0.00665,7.96768
3866,0.00666,7.96768
3867,0.00667,7.96768
3868,0.00668,7.96768
3869,0.00669,7.96768
3870,0.0067,7.96768
3871,0.00671,7.96768
3872,0.00672,7.96768
3873,0.00673,7.96768
3874,0.00674,7.96768
3875,0.00675,7.96768
3876,0.00676,7.96768
3877,0.00677,7.96768
3878,0.00678,7.96768
3879,0.00679,7.96768
3880,0.0068,7.96768
3881,0.00681,7.96768
3882,0.00682,7.96768
3883,0.00683,7.96768
3884,0.00684,7.96768
3885,0.00685,7.96768
3886,0.00686,7.96768
3887,0.00687,7.96768
3888,0.00688,7.96768
3889,0.00689,7.96768
3890,0.0069,7.96768
3891,0.00691,7.96768
3892,0.00692,7.96768
3893,0.00693,7.96768
3894,0.00694,7.96768
3895,0.00695,7.96768
3896,0.00696,7.96768
3897,0.00697,7.96768
3898,0.00698,7.96768
3899,0.00699,7.96768
3900,0.007,7.96768
3901,0.00701,7.96768
3902,0.00702,7.96768
3903,0.00703,7.96768
3904,0.00704,7.96768
3905,0.00705,7.96768
3906,0.00706,7.96768
3907,0.00707,7.96768
3908,0.00708,7.96768
3909,0.00709,7.96768
3910,0.0071,7.96768
3911,0.00711,7.96768
3912,0.00712,7.96768
3913,0.00713,7.96768
3914,0.00714,7.96768
3915,0.00715,7.96768
3916,0.00716,7.96768
3917,0.00717,7.96768
3918,0.00718,7.96768
3919,0.00719,7.96768
3920,0.0072,7.96768
3921,0.00721,7.96768
3922,0.00722,7.96768
3923,0.00723,7.96768
3924,0.00724,7.96768
3925,0.00725,7.96768
3926,0.00726,7.96768
3927,0.00727,7.96768
3928,0.00728,7.96768
3929,0.00729,7.96768
3930,0.0073,7.96768
3931,0.00731,7.96768
3932,0.00732,7.96768
3933,0.00733,7.96768
3934,0.00734,7.96768
3935,0.00735,7.96768
3936,0.00736,7.96768
3937,0.00737,7.96768
3938,0.00738,7.96768
3939,0.00739,7.96768
3940,0.0074,7.96768
3941,0.00741,7.96768
3942,0.00742,7.96768
3943,0.00743,7.96768
3944,0.00744,7.96768
3945,0.00745,7.96768
3946,0.00746,7.96768
3947,0.00747,7.96768
3948,0.00748,7.96768
3949,0.00749,7.96768
3950,0.0075,7.96768
3951,0.00751,7.96768
3952,0.00752,7.96768
3953,0.00753,7.96768
3954,0.00754,7.96768
3955,0.00755,7.96768
3956,0.00756,7.96768
3957,0.00757,7.96768
3958,0.00758,7.96768
3959,0.00759,7.96768
3960,0.0076,7.96768
3961,0.00761,7.96768
3962,0.00762,7.96768
3963,0.00763,7.96768
3964,0.00764,7.96768
3965,0.00765,7.96768
3966,0.00766,7.96768
3967,0.00767,7.96768
3968,0.00768,7.96768
3969,0.00769,7.96768
3970,0.0077,7.96768
3971,0.00771,7.96768
3972,0.00772,7.96768
3973,0.00773,7.96768
3974,0.00774,7.96768
3975,0.00775,7.96768
3976,0.00776,7.96768
3977,0.00777,7.96768
3978,0.00778,7.96768
3979,0.00779,7.96768
3980,0.0078,7.96768
3981,0.00781,7.96768
3982,0.00782,7.96768
3983,0.00783,7.96768
3984,0.00784,7.96768
3985,0.00785,7.96768
3986,0.00786,7.96768
3987,0.00787,7.96768
3988,0.00788,7.96768
3989,0.00789,7.96768
3990,0.0079,7.96768
3991,0.00791,7.96768
3992,0.00792,7.96768
3993,0.00793,7.96768
3994,0.00794,7.96768
3995,0.00795,7.96768
3996,0.00796,7.96768
3997,0.00797,7.96768
3998,0.00798,7.96768
3999,0.00799,7.96768
4000,0.008,7.96768
4001,0.00801,7.96768
4002,0.00802,7.96768
4003,0.00803,7.96768
4004,0.00804,7.96768
4005,0.00805,7.96768
4006,0.00806,7.96768
4007,0.00807,7.96768
4008,0.00808,7.96768
4009,0.00809,7.96768
4010,0.0081,7.96768
4011,0.00811,7.96768
4012,0.00812,7.96768
4013,0.00813,7.96768
4014,0.00814,7.96768
4015,0.00815,7.96768
4016,0.00816,7.96768
4017,0.00817,7.96768
4018,0.00818,7.96768
4019,0.00819,7.96768
4020,0.0082,7.96768
4021,0.00821,7.96768
4022,0.00822,7.96768
4023,0.00823,7.96768
4024,0.00824,7.95097
4025,0.00825,7.96768
4026,0.00826,7.96768
4027,0.00827,7.96768
4028,0.00828,7.96768
4029,0.00829,7.96768
4030,0.0083,7.96768
4031,0.00831,7.96768
4032,0.00832,7.96768
4033,0.00833,7.95097
4034,0.00834,7.96768
4035,0.00835,7.96768
4036,0.00836,7.96768
4037,0.00837,7.95097
4038,0.00838,7.96768
4039,0.00839,7.96768
4040,0.0084,7.93427
4041,0.00841,7.95097
4042,0.00842,7.95097
4043,0.00843,7.95097
4044,0.00844,7.95097
4045,0.00845,7.95097
4046,0.00846,7.95097
4047,0.00847,7.95097
4048,0.00848,7.95097
4049,0.00849,7.96768
4050,0.0085,7.93427
4051,0.00851,7.95097
4052,0.00852,7.95097
4053,0.00853,7.95097
4054,0.00854,7.96768
4055,0.00855,7.93427
4056,0.00856,7.93427
4057,0.00857,7.96768
4058,0.00858,7.96768
4059,0.00859,7.93427
4060,0.0086,7.96768
4061,0.00861,7.93427
4062,0.00862,7.95097
4063,0.00863,7.95097
4064,0.00864,7.95097
4065,0.00865,7.95097
4066,0.00866,7.95097
4067,0.00867,7.95097
4068,0.00868,7.95097
4069,0.00869,7.95097
4070,0.0087,7.95097
4071,0.00871,7.95097
4072,0.00872,7.95097
4073,0.00873,7.95097
4074,0.00874,7.95097
4075,0.00875,7.95097
4076,0.00876,7.95097
4077,0.00877,7.95097
4078,0.00878,7.95097
4079,0.00879,7.95097
4080,0.0088,7.95097
4081,0.00881,7.95097
4082,0.00882,7.95097
4083,0.00883,7.95097
4084,0.00884,7.95097
4085,0.00885,7.95097
4086,0.00886,7.95097
4087,0.00887,7.95097
4088,0.00888,7.95097
4089,0.00889,7.95097
4090,0.0089,7.95097
4091,0.00891,7.95097
4092,0.00892,7.95097
4093,0.00893,7.95097
4094,0.00894,7.95097
4095,0.00895,7.95097
4096,0.00896,7.95097
4097,0.00897,7.95097
4098,0.00898,7.95097
4099,0.00899,7.95097
4100,0.009,7.95097
4101,0.00901,7.95097
4102,0.00902,7.95097
4103,0.00903,7.95097
4104,0.00904,7.95097
4105,0.00905,7.95097
4106,0.00906,7.95097
4107,0.00907,7.95097
4108,0.00908,7.95097
4109,0.00909,7.95097
4110,0.0091,7.95097
4111,0.00911,7.95097
4112,0.00912,7.95097
4113,0.00913,7.95097
4114,0.00914,7.95097
4115,0.00915,7.95097
4116,0.00916,7.95097
4117,0.00917,7.95097
4118,0.00918,7.95097
4119,0.00919,7.95097
4120,0.0092,7.95097
4121,0.00921,7.95097
4122,0.00922,7.95097
4123,0.00923,7.95097
4124,0.00924,7.93427
4125,0.00925,7.90086
4126,0.00926,7.90086
4127,0.00927,7.90086
4128,0.00928,7.90086
4129,0.00929,7.90086
4130,0.0093,7.90086
4131,0.00931,7.90086
4132,0.00932,7.90086
4133,0.00933,7.90086
4134,0.00934,7.90086
4135,0.00935,7.90086
4136,0.00936,7.90086
4137,0.00937,7.90086
4138,0.00938,7.90086
4139,0.00939,7.90086
4140,0.0094,7.90086
4141,0.00941,7.90086
4142,0.00942,7.90086
4143,0.00943,7.90086
4144,0.00944,7.90086
4145,0.00945,7.90086
4146,0.00946,7.90086
4147,0.00947,7.90086
4148,0.00948,7.90086
4149,0.00949,7.90086
4150,0.0095,7.90086
4151,0.00951,7.90086
4152,0.00952,7.90086
4153,0.00953,7.90086
4154,0.00954,7.90086
4155,0.00955,7.90086
4156,0.00956,7.90086
4157,0.00957,7.90086
4158,0.00958,7.90086
4159,0.00959,7.90086
4160,0.0096,7.90086
4161,0.00961,7.90086
4162,0.00962,7.90086
4163,0.00963,7.90086
4164,0.00964,7.90086
4165,0.00965,7.90086
4166,0.00966,7.90086
4167,0.00967,7.90086
4168,0.00968,7.90086
4169,0.00969,7.90086
4170,0.0097,7.90086
4171,0.00971,7.90086
4172,0.00972,7.90086
4173,0.00973,7.90086
4174,0.00974,7.90086
4175,0.00975,7.90086
4176,0.00976,7.90086
4177,0.00977,7.90086
4178,0.00978,7.90086
4179,0.00979,7.90086
4180,0.0098,7.90086
4181,0.00981,7.90086
4182,0.00982,7.90086
4183,0.00983,7.90086
4184,0.00984,7.90086
4185,0.00985,7.90086
4186,0.00986,7.90086
4187,0.00987,7.90086
4188,0.00988,7.90086
4189,0.00989,7.90086
4190,0.0099,7.90086
4191,0.00991,7.90086
4192,0.00992,7.90086
4193,0.00993,7.90086
4194,0.00994,7.90086
4195,0.00995,7.90086
4196,0.00996,7.90086
4197,0.00997,7.90086
4198,0.00998,7.90086
4199,0.00999,7.90086
4200,0.01,7.90086
4201,0.01001,7.90086
4202,0.01002,7.90086
4203,0.01003,7.90086
4204,0.01004,7.90086
4205,0.01005,7.90086
4206,0.01006,7.90086
4207,0.01007,7.90086
4208,0.01008,7.90086
4209,0.01009,7.90086
4210,0.0101,7.90086
4211,0.01011,7.90086
4212,0.01012,7.90086
4213,0.01013,7.90086
4214,0.01014,7.90086
4215,0.01015,7.90086
4216,0.01016,7.90086
4217,0.01017,7.90086
4218,0.01018,7.90086
4219,0.01019,7.90086
4220,0.0102,7.90086
4221,0.01021,7.90086
4222,0.01022,7.90086
4223,0.01023,7.90086
4224,0.01024,7.90086
4225,0.01025,7.90086
4226,0.01026,7.90086
4227,0.01027,7.90086
4228,0.01028,7.90086
4229,0.01029,7.90086
4230,0.0103,7.90086
4231,0.01031,7.90086
4232,0.01032,7.90086
4233,0.01033,7.90086
4234,0.01034,7.90086
4235,0.01035,7.90086
4236,0.01036,7.90086
4237,0.01037,7.90086
4238,0.01038,7.90086
4239,0.01039,7.90086
4240,0.0104,7.90086
4241,0.01041,7.90086
4242,0.01042,7.90086
4243,0.01043,7.90086
4244,0.01044,7.90086
4245,0.01045,7.90086
4246,0.01046,7.90086
4247,0.01047,7.90086
4248,0.01048,7.90086
4249,0.01049,7.90086
4250,0.0105,7.90086
4251,0.01051,7.90086
4252,0.01052,7.90086
4253,0.01053,7.90086
4254,0.01054,7.90086
4255,0.01055,7.90086
4256,0.01056,7.90086
4257,0.01057,7.90086
4258,0.01058,7.90086
4259,0.01059,7.90086
4260,0.0106,7.90086
4261,0.01061,7.90086
4262,0.01062,7.90086
4263,0.01063,7.90086
4264,0.01064,7.90086
4265,0.01065,7.90086
4266,0.01066,7.90086
4267,0.01067,7.90086
4268,0.01068,7.90086
4269,0.01069,7.90086
4270,0.0107,7.90086
4271,0.01071,7.90086
4272,0.01072,7.90086
4273,0.01073,7.90086
4274,0.01074,7.90086
4275,0.01075,7.90086
4276,0.01076,7.90086
4277,0.01077,7.90086
4278,0.01078,7.90086
4279,0.01079,7.90086
4280,0.0108,7.90086
4281,0.01081,7.90086
4282,0.01082,7.90086
4283,0.01083,7.90086
4284,0.01084,7.90086
4285,0.01085,7.90086
4286,0.01086,7.90086
4287,0.01087,7.90086
4288,0.01088,7.90086
4289,0.01089,7.90086
4290,0.0109,7.90086
4291,0.01091,7.90086
4292,0.01092,7.90086
4293,0.01093,7.90086
4294,0.01094,7.90086
4295,0.01095,7.90086
4296,0.01096,7.90086
4297,0.01097,7.90086
4298,0.01098,7.90086
4299,0.01099,7.90086
4300,0.011,7.90086
4301,0.01101,7.90086
4302,0.01102,7.90086
4303,0.01103,7.90086
4304,0.01104,7.90086
4305,0.01105,7.90086
4306,0.01106,7.90086
4307,0.01107,7.90086
4308,0.01108,7.90086
4309,0.01109,7.90086
4310,0.0111,7.90086
4311,0.01111,7.90086
4312,0.01112,7.90086
4313,0.01113,7.90086
4314,0.01114,7.90086
4315,0.01115,7.90086
4316,0.01116,7.90086
4317,0.01117,7.90086
4318,0.01118,7.90086
4319,0.01119,7.90086
4320,0.0112,7.90086
4321,0.01121,7.90086
4322,0.01122,7.90086
4323,0.01123,7.90086
4324,0.01124,7.90086
4325,0.01125,7.90086
4326,0.01126,7.90086
4327,0.01127,7.90086
4328,0.01128,7.90086
4329,0.01129,7.90086
4330,0.0113,7.90086
4331,0.01131,7.90086
4332,0.01132,7.90086
4333,0.01133,7.90086
4334,0.01134,7.90086
4335,0.01135,7.90086
4336,0.01136,7.90086
4337,0.01137,7.90086
4338,0.01138,7.90086
4339,0.01139,7.90086
4340,0.0114,7.90086
4341,0.01141,7.90086
4342,0.01142,7.90086
4343,0.01143,7.90086
4344,0.01144,7.90086
4345,0.01145,7.90086
4346,0.01146,7.90086
4347,0.01147,7.90086
4348,0.01148,7.90086
4349,0.01149,7.90086
4350,0.0115,7.90086
4351,0.01151,7.90086
4352,0.01152,7.90086
4353,0.01153,7.90086
4354,0.01154,7.90086
4355,0.01155,7.88416
4356,0.01156,7.90086
4357,0.01157,7.90086
4358,0.01158,7.90086
4359,0.01159,7.90086
4360,0.0116,7.90086
4361,0.01161,7.88416
4362,0.01162,7.88416
4363,0.01163,7.90086
4364,0.01164,7.90086
4365,0.01165,7.90086
4366,0.01166,7.90086
4367,0.01167,7.85075
4368,0.01168,7.90086
4369,0.01169,7.85075
4370,0.0117,7.88416
4371,0.01171,7.88416
4372,0.01172,7.88416
4373,0.01173,7.85075
4374,0.01174,7.90086
4375,0.01175,7.90086
4376,0.01176,7.88416
4377,0.01177,7.90086
4378,0.01178,7.90086
4379,0.01179,7.90086
4380,0.0118,7.85075
4381,0.01181,7.88416
4382,0.01182,7.90086
4383,0.01183,7.90086
4384,0.01184,7.88416
4385,0.01185,7.88416
4386,0.01186,7.88416
4387,0.01187,7.88416
4388,0.01188,7.88416
4389,0.01189,7.88416
4390,0.0119,7.88416
4391,0.01191,7.88416
4392,0.01192,7.88416
4393,0.01193,7.88416
4394,0.01194,7.88416
4395,0.01195,7.88416
4396,0.01196,7.88416
4397,0.01197,7.88416
4398,0.01198,7.88416
4399,0.01199,7.88416
4400,0.012,7.88416
4401,0.01201,7.88416
4402,0.01202,7.88416
4403,0.01203,7.88416
4404,0.01204,7.88416
4405,0.01205,7.88416
4406,0.01206,7.85075
4407,0.01207,7.90086
4408,0.01208,7.88416
4409,0.01209,7.88416
4410,0.0121,7.88416
4411,0.01211,7.88416
4412,0.01212,7.88416
4413,0.01213,7.88416
4414,0.01214,7.88416
4415,0.01215,7.85075
4416,0.01216,7.90086
4417,0.01217,7.88416
4418,0.01218,7.90086
4419,0.01219,7.88416
4420,0.0122,7.85075
4421,0.01221,7.90086
4422,0.01222,7.88416
4423,0.01223,7.88416
4424,0.01224,7.88416
4425,0.01225,7.88416
4426,0.01226,7.88416
4427,0.01227,7.88416
4428,0.01228,7.88416
4429,0.01229,7.88416
4430,0.0123,7.88416
4431,0.01231,7.88416
4432,0.01232,7.88416
4433,0.01233,7.88416
4434,0.01234,7.88416
4435,0.01235,7.88416
4436,0.01236,7.88416
4437,0.01237,7.88416
4438,0.01238,7.88416
4439,0.01239,7.88416
4440,0.0124,7.88416
4441,0.01241,7.88416
4442,0.01242,7.88416
4443,0.01243,7.88416
4444,0.01244,7.88416
4445,0.01245,7.88416
4446,0.01246,7.88416
4447,0.01247,7.88416
4448,0.01248,7.88416
4449,0.01249,7.88416
4450,0.0125,7.88416
4451,0.01251,7.88416
4452,0.01252,7.88416
4453,0.01253,7.88416
4454,0.01254,7.88416
4455,0.01255,7.88416
4456,0.01256,7.88416
4457,0.01257,7.88416
4458,0.01258,7.88416
4459,0.01259,7.88416
4460,0.0126,7.88416
4461,0.01261,7.88416
4462,0.01262,7.88416
4463,0.01263,7.88416
4464,0.01264,7.88416
4465,0.01265,7.88416
4466,0.01266,7.88416
4467,0.01267,7.88416
4468,0.01268,7.88416
4469,0.01269,7.88416
4470,0.0127,7.88416
4471,0.01271,7.88416
4472,0.01272,7.88416
4473,0.01273,7.88416
4474,0.01274,7.88416
4475,0.01275,7.88416
4476,0.01276,7.88416
4477,0.01277,7.88416
4478,0.01278,7.88416
4479,0.01279,7.88416
4480,0.0128,7.88416
4481,0.01281,7.88416
4482,0.01282,7.88416
4483,0.01283,7.88416
4484,0.01284,7.88416
4485,0.01285,7.88416
4486,0.01286,7.88416
4487,0.01287,7.88416
4488,0.01288,7.88416
4489,0.01289,7.88416
4490,0.0129,7.88416
4491,0.01291,7.88416
4492,0.01292,7.88416
4493,0.01293,7.88416
4494,0.01294,7.88416
4495,0.01295,7.88416
4496,0.01296,7.88416
4497,0.01297,7.88416
4498,0.01298,7.88416
4499,0.01299,7.88416
4500,0.013,7.88416
4501,0.01301,7.88416
4502,0.01302,7.88416
4503,0.01303,7.88416
4504,0.01304,7.88416
4505,0.01305,7.88416
4506,0.01306,7.88416
4507,0.01307,7.88416
4508,0.01308,7.88416
4509,0.01309,7.88416
4510,0.0131,7.88416
4511,0.01311,7.88416
4512,0.01312,7.88416
4513,0.01313,7.88416
4514,0.01314,7.88416
4515,0.01315,7.88416
4516,0.01316,7.88416
4517,0.01317,7.88416
4518,0.01318,7.88416
4519,0.01319,7.88416
4520,0.0132,7.88416
4521,0.01321,7.88416
4522,0.01322,7.88416
4523,0.01323,7.88416
4524,0.01324,7.88416
4525,0.01325,7.88416
4526,0.01326,7.88416
4527,0.01327,7.88416
4528,0.01328,7.88416
4529,0.01329,7.88416
4530,0.0133,7.88416
4531,0.01331,7.88416
4532,0.01332,7.88416
4533,0.01333,7.88416
4534,0.01334,7.88416
4535,0.01335,7.88416
4536,0.01336,7.88416
4537,0.01337,7.88416
4538,0.01338,7.88416
4539,0.01339,7.88416
4540,0.0134,7.88416
4541,0.01341,7.88416
4542,0.01342,7.88416
4543,0.01343,7.88416
4544,0.01344,7.88416
4545,0.01345,7.88416
4546,0.01346,7.88416
4547,0.01347,7.88416
4548,0.01348,7.88416
4549,0.01349,7.88416
4550,0.0135,7.88416
4551,0.01351,7.88416
4552,0.01352,7.88416
4553,0.01353,7.88416
4554,0.01354,7.88416
4555,0.01355,7.88416
4556,0.01356,7.88416
4557,0.01357,7.88416
4558,0.01358,7.88416
4559,0.01359,7.88416
4560,0.0136,7.88416
4561,0.01361,7.88416
4562,0.01362,7.88416
4563,0.01363,7.88416
4564,0.01364,7.88416
4565,0.01365,7.88416
4566,0.01366,7.88416
4567,0.01367,7.88416
4568,0.01368,7.88416
4569,0.01369,7.88416
4570,0.0137,7.88416
4571,0.01371,7.88416
4572,0.01372,7.88416
4573,0.01373,7.88416
4574,0.01374,7.88416
4575,0.01375,7.88416
4576,0.01376,7.88416
4577,0.01377,7.88416
4578,0.01378,7.88416
4579,0.01379,7.88416
4580,0.0138,7.85075
4581,0.01381,7.88416
4582,0.01382,7.88416
4583,0.01383,7.88416
4584,0.01384,7.88416
4585,0.01385,7.88416
4586,0.01386,7.88416
4587,0.01387,7.88416
4588,0.01388,7.88416
4589,0.01389,7.88416
4590,0.0139,7.88416
4591,0.01391,7.85075
4592,0.01392,7.88416
4593,0.01393,7.88416
4594,0.01394,7.88416
4595,0.01395,7.88416
4596,0.01396,7.88416
4597,0.01397,7.88416
4598,0.01398,7.88416
4599,0.01399,7.88416
4600,0.014,7.88416
4601,0.01401,7.88416
4602,0.01402,7.88416
4603,0.01403,7.88416
4604,0.01404,7.88416
4605,0.01405,7.88416
4606,0.01406,7.88416
4607,0.01407,7.88416
4608,0.01408,7.88416
4609,0.01409,7.88416
4610,0.0141,7.88416
4611,0.01411,7.88416
4612,0.01412,7.85075
4613,0.01413,7.88416
4614,0.01414,7.88416
4615,0.01415,7.88416
4616,0.01416,7.88416
4617,0.01417,7.85075
4618,0.01418,7.88416
4619,0.01419,7.85075
4620,0.0142,7.88416
4621,0.01421,7.88416
4622,0.01422,7.88416
4623,0.01423,7.85075
4624,0.01424,7.85075
4625,0.01425,7.88416
4626,0.01426,7.83405
4627,0.01427,7.88416
4628,0.01428,7.83405
4629,0.01429,7.88416
4630,0.0143,7.88416
4631,0.01431,7.83405
4632,0.01432,7.85075
4633,0.01433,7.88416
4634,0.01434,7.83405
4635,0.01435,7.83405
4636,0.01436,7.88416
4637,0.01437,7.85075
4638,0.01438,7.88416
4639,0.01439,7.85075
4640,0.0144,7.83405
4641,0.01441,7.88416
4642,0.01442,7.83405
4643,0.01443,7.88416
4644,0.01444,7.83405
4645,0.01445,7.85075
4646,0.01446,7.85075
4647,0.01447,7.85075
4648,0.01448,7.83405
4649,0.01449,7.85075
4650,0.0145,7.88416
4651,0.01451,7.83405
4652,0.01452,7.85075
4653,0.01453,7.85075
4654,0.01454,7.85075
4655,0.01455,7.85075
4656,0.01456,7.85075
4657,0.01457,7.85075
4658,0.01458,7.85075
4659,0.01459,7.85075
4660,0.0146,7.85075
4661,0.01461,7.85075
4662,0.01462,7.85075
4663,0.01463,7.85075
4664,0.01464,7.85075
4665,0.01465,7.85075
4666,0.01466,7.85075
4667,0.01467,7.85075
4668,0.01468,7.85075
4669,0.01469,7.85075
4670,0.0147,7.85075
4671,0.01471,7.85075
4672,0.01472,7.85075
4673,0.01473,7.85075
4674,0.01474,7.85075
4675,0.01475,7.85075
4676,0.01476,7.85075
4677,0.01477,7.85075
4678,0.01478,7.85075
4679,0.01479,7.85075
4680,0.0148,7.85075
4681,0.01481,7.85075
4682,0.01482,7.85075
4683,0.01483,7.85075
4684,0.01484,7.85075
4685,0.01485,7.85075
4686,0.01486,7.85075
4687,0.01487,7.85075
4688,0.01488,7.85075
4689,0.01489,7.85075
4690,0.0149,7.85075
4691,0.01491,7.85075
4692,0.01492,7.85075
4693,0.01493,7.85075
4694,0.01494,7.85075
4695,0.01495,7.85075
4696,0.01496,7.85075
4697,0.01497,7.85075
4698,0.01498,7.85075
4699,0.01499,7.85075
4700,0.015,7.85075
4701,0.01501,7.85075
4702,0.01502,7.85075
4703,0.01503,7.85075
4704,0.01504,7.85075
4705,0.01505,7.85075
4706,0.01506,7.85075
4707,0.01507,7.85075
4708,0.01508,7.85075
4709,0.01509,7.85075
4710,0.0151,7.85075
4711,0.01511,7.85075
4712,0.01512,7.85075
4713,0.01513,7.85075
4714,0.01514,7.85075
4715,0.01515,7.85075
4716,0.01516,7.85075
4717,0.01517,7.85075
4718,0.01518,7.85075
4719,0.01519,7.85075
4720,0.0152,7.85075
4721,0.01521,7.85075
4722,0.01522,7.85075
4723,0.01523,7.85075
4724,0.01524,7.85075
4725,0.01525,7.85075
4726,0.01526,7.85075
4727,0.01527,7.85075
4728,0.01528,7.85075
4729,0.01529,7.85075
4730,0.0153,7.85075
4731,0.01531,7.85075
4732,0.01532,7.85075
4733,0.01533,7.85075
4734,0.01534,7.85075
4735,0.01535,7.85075
4736,0.01536,7.85075
4737,0.01537,7.85075
4738,0.01538,7.85075
4739,0.01539,7.85075
4740,0.0154,7.85075
4741,0.01541,7.85075
4742,0.01542,7.85075
4743,0.01543,7.85075
4744,0.01544,7.85075
4745,0.01545,7.85075
4746,0.01546,7.85075
4747,0.01547,7.85075
4748,0.01548,7.85075
4749,0.01549,7.85075
4750,0.0155,7.85075
4751,0.01551,7.85075
4752,0.01552,7.85075
4753,0.01553,7.85075
4754,0.01554,7.85075
4755,0.01555,7.85075
4756,0.01556,7.85075
4757,0.01557,7.85075
4758,0.01558,7.85075
4759,0.01559,7.85075
4760,0.0156,7.85075
4761,0.01561,7.85075
4762,0.01562,7.85075
4763,0.01563,7.85075
4764,0.01564,7.85075
4765,0.01565,7.85075
4766,0.01566,7.85075
4767,0.01567,7.85075
4768,0.01568,7.85075
4769,0.01569,7.85075
4770,0.0157,7.85075
4771,0.01571,7.85075
4772,0.01572,7.85075
4773,0.01573,7.85075
4774,0.01574,7.85075
4775,0.01575,7.85075
4776,0.01576,7.85075
4777,0.01577,7.85075
4778,0.01578,7.85075
4779,0.01579,7.85075
4780,0.0158,7.85075
4781,0.01581,7.85075
4782,0.01582,7.85075
4783,0.01583,7.85075
4784,0.01584,7.85075
4785,0.01585,7.85075
4786,0.01586,7.85075
4787,0.01587,7.85075
4788,0.01588,7.85075
4789,0.01589,7.85075
4790,0.0159,7.85075
4791,0.01591,7.85075
4792,0.01592,7.85075
4793,0.01593,7.85075
4794,0.01594,7.85075
4795,0.01595,7.85075
4796,0.01596,7.85075
4797,0.01597,7.85075
4798,0.01598,7.85075
4799,0.01599,7.85075
4800,0.016,7.85075
4801,0.01601,7.85075
4802,0.01602,7.85075
4803,0.01603,7.85075
4804,0.01604,7.85075
4805,0.01605,7.85075
4806,0.01606,7.85075
4807,0.01607,7.85075
4808,0.01608,7.85075
4809,0.01609,7.85075
4810,0.0161,7.85075
4811,0.01611,7.85075
4812,0.01612,7.85075
4813,0.01613,7.85075
4814,0.01614,7.85075
4815,0.01615,7.85075
4816,0.01616,7.85075
4817,0.01617,7.85075
4818,0.01618,7.85075
4819,0.01619,7.85075
4820,0.0162,7.85075
4821,0.01621,7.85075
4822,0.01622,7.85075
4823,0.01623,7.85075
4824,0.01624,7.85075
4825,0.01625,7.85075
4826,0.01626,7.85075
4827,0.01627,7.85075
4828,0.01628,7.85075
4829,0.01629,7.85075
4830,0.0163,7.85075
4831,0.01631,7.85075
4832,0.01632,7.85075
4833,0.01633,7.85075
4834,0.01634,7.85075
4835,0.01635,7.85075
4836,0.01636,7.85075
4837,0.01637,7.85075
4838,0.01638,7.85075
4839,0.01639,7.85075
4840,0.0164,7.85075
4841,0.01641,7.85075
4842,0.01642,7.85075
4843,0.01643,7.85075
4844,0.01644,7.85075
4845,0.01645,7.85075
4846,0.01646,7.85075
4847,0.01647,7.85075
4848,0.01648,7.85075
4849,0.01649,7.85075
4850,0.0165,7.85075
4851,0.01651,7.85075
4852,0.01652,7.85075
4853,0.01653,7.85075
4854,0.01654,7.85075
4855,0.01655,7.85075
4856,0.01656,7.85075
4857,0.01657,7.85075
4858,0.01658,7.85075
4859,0.01659,7.85075
4860,0.0166,7.85075
4861,0.01661,7.85075
4862,0.01662,7.85075
4863,0.01663,7.85075
4864,0.01664,7.85075
4865,0.01665,7.85075
4866,0.01666,7.85075
4867,0.01667,7.85075
4868,0.01668,7.85075
4869,0.01669,7.85075
4870,0.0167,7.85075
4871,0.01671,7.85075
4872,0.01672,7.85075
4873,0.01673,7.85075
4874,0.01674,7.85075
4875,0.01675,7.85075
4876,0.01676,7.85075
4877,0.01677,7.85075
4878,0.01678,7.83405
4879,0.01679,7.85075
4880,0.0168,7.85075
4881,0.01681,7.83405
4882,0.01682,7.85075
4883,0.01683,7.85075
4884,0.01684,7.85075
4885,0.01685,7.85075
4886,0.01686,7.85075
4887,0.01687,7.85075
4888,0.01688,7.85075
4889,0.01689,7.85075
4890,0.0169,7.85075
4891,0.01691,7.85075
4892,0.01692,7.85075
4893,0.01693,7.83405
4894,0.01694,7.85075
4895,0.01695,7.85075
4896,0.01696,7.83405
4897,0.01697,7.85075
4898,0.01698,7.85075
4899,0.01699,7.85075
4900,0.017,7.85075
4901,0.01701,7.85075
4902,0.01702,7.85075
4903,0.01703,7.83405
4904,0.01704,7.81734
4905,0.01705,7.83405
4906,0.01706,7.83405
4907,0.01707,7.85075
4908,0.01708,7.85075
4909,0.01709,7.85075
4910,0.0171,7.85075
4911,0.01711,7.85075
4912,0.01712,7.85075
4913,0.01713,7.85075
4914,0.01714,7.85075
4915,0.01715,7.81734
4916,0.01716,7.81734
4917,0.01717,7.83405
4918,0.01718,7.83405
4919,0.01719,7.83405
4920,0.0172,7.83405
4921,0.01721,7.83405
4922,0.01722,7.83405
4923,0.01723,7.83405
4924,0.01724,7.85075
4925,0.01725,7.81734
4926,0.01726,7.85075
4927,0.01727,7.85075
4928,0.01728,7.81734
4929,0.01729,7.83405
4930,0.0173,7.83405
4931,0.01731,7.83405
4932,0.01732,7.83405
4933,0.01733,7.83405
4934,0.01734,7.83405
4935,0.01735,7.83405
4936,0.01736,7.83405
4937,0.01737,7.83405
4938,0.01738,7.83405
4939,0.01739,7.83405
4940,0.0174,7.83405
4941,0.01741,7.81734
4942,0.01742,7.83405
4943,0.01743,7.83405
4944,0.01744,7.83405
4945,0.01745,7.83405
4946,0.01746,7.83405
4947,0.01747,7.83405
4948,0.01748,7.83405
4949,0.01749,7.83405
4950,0.0175,7.81734
4951,0.01751,7.83405
4952,0.01752,7.83405
4953,0.01753,7.83405
4954,0.01754,7.83405
4955,0.01755,7.83405
4956,0.01756,7.83405
4957,0.01757,7.83405
4958,0.01758,7.81734
4959,0.01759,7.85075
4960,0.0176,7.81734
4961,0.01761,7.83405
4962,0.01762,7.83405
4963,0.01763,7.83405
4964,0.01764,7.83405
4965,0.01765,7.83405
4966,0.01766,7.83405
4967,0.01767,7.83405
4968,0.01768,7.83405
4969,0.01769,7.83405
4970,0.0177,7.81734
4971,0.01771,7.85075
4972,0.01772,7.81734
4973,0.01773,7.83405
4974,0.01774,7.83405
4975,0.01775,7.83405
4976,0.01776,7.83405
4977,0.01777,7.83405
4978,0.01778,7.83405
4979,0.01779,7.83405
4980,0.0178,7.81734
4981,0.01781,7.85075
4982,0.01782,7.81734
4983,0.01783,7.83405
4984,0.01784,7.83405
4985,0.01785,7.83405
4986,0.01786,7.83405
4987,0.01787,7.83405
4988,0.01788,7.83405
4989,0.01789,7.83405
4990,0.0179,7.83405
4991,0.01791,7.83405
4992,0.01792,7.83405
4993,0.01793,7.83405
4994,0.01794,7.83405
4995,0.01795,7.83405
4996,0.01796,7.83405
4997,0.01797,7.83405
4998,0.01798,7.83405
4999,0.01799,7.83405
5000,0.018,7.83405
5001,0.01801,7.83405
5002,0.01802,7.83405
5003,0.01803,7.83405
5004,0.01804,7.83405
5005,0.01805,7.83405
5006,0.01806,7.83405
5007,0.01807,7.83405
5008,0.01808,7.83405
5009,0.01809,7.83405
5010,0.0181,7.83405
5011,0.01811,7.83405
5012,0.01812,7.83405
5013,0.01813,7.83405
5014,0.01814,7.83405
5015,0.01815,7.83405
5016,0.01816,7.83405
5017,0.01817,7.83405
5018,0.01818,7.83405
5019,0.01819,7.83405
5020,0.0182,7.83405
5021,0.01821,7.83405
5022,0.01822,7.83405
5023,0.01823,7.83405
5024,0.01824,7.83405
5025,0.01825,7.83405
5026,0.01826,7.83405
5027,0.01827,7.83405
5028,0.01828,7.83405
5029,0.01829,7.83405
5030,0.0183,7.83405
5031,0.01831,7.83405
5032,0.01832,7.83405
5033,0.01833,7.83405
5034,0.01834,7.83405
5035,0.01835,7.83405
5036,0.01836,7.83405
5037,0.01837,7.83405
5038,0.01838,7.83405
5039,0.01839,7.83405
5040,0.0184,7.83405
5041,0.01841,7.83405
5042,0.01842,7.83405
5043,0.01843,7.83405
5044,0.01844,7.83405
5045,0.01845,7.83405
5046,0.01846,7.83405
5047,0.01847,7.83405
5048,0.01848,7.83405
5049,0.01849,7.83405
5050,0.0185,7.83405
5051,0.01851,7.83405
5052,0.01852,7.83405
5053,0.01853,7.83405
5054,0.01854,7.83405
5055,0.01855,7.83405
5056,0.01856,7.83405
5057,0.01857,7.83405
5058,0.01858,7.83405
5059,0.01859,7.83405
5060,0.0186,7.83405
5061,0.01861,7.83405
5062,0.01862,7.83405
5063,0.01863,7.83405
5064,0.01864,7.83405
5065,0.01865,7.83405
5066,0.01866,7.83405
5067,0.01867,7.83405
5068,0.01868,7.83405
5069,0.01869,7.83405
5070,0.0187,7.83405
5071,0.01871,7.83405
5072,0.01872,7.83405
5073,0.01873,7.83405
5074,0.01874,7.83405
5075,0.01875,7.83405
5076,0.01876,7.83405
5077,0.01877,7.83405
5078,0.01878,7.83405
5079,0.01879,7.83405
5080,0.0188,7.83405
5081,0.01881,7.83405
5082,0.01882,7.83405
5083,0.01883,7.83405
5084,0.01884,7.83405
5085,0.01885,7.83405
5086,0.01886,7.83405
5087,0.01887,7.83405
5088,0.01888,7.83405
5089,0.01889,7.83405
5090,0.0189,7.83405
5091,0.01891,7.83405
5092,0.01892,7.83405
5093,0.01893,7.83405
5094,0.01894,7.83405
5095,0.01895,7.83405
5096,0.01896,7.83405
5097,0.01897,7.83405
5098,0.01898,7.83405
5099,0.01899,7.83405
5100,0.019,7.83405
5101,0.01901,7.83405
5102,0.01902,7.83405
5103,0.01903,7.83405
5104,0.01904,7.83405
5105,0.01905,7.83405
5106,0.01906,7.83405
5107,0.01907,7.83405
5108,0.01908,7.83405
5109,0.01909,7.83405
5110,0.0191,7.83405
5111,0.01911,7.83405
5112,0.01912,7.83405
5113,0.01913,7.83405
5114,0.01914,7.83405
5115,0.01915,7.83405
5116,0.01916,7.83405
5117,0.01917,7.83405
5118,0.01918,7.83405
5119,0.01919,7.83405
5120,0.0192,7.83405
5121,0.01921,7.83405
5122,0.01922,7.83405
5123,0.01923,7.83405
5124,0.01924,7.83405
5125,0.01925,7.83405
5126,0.01926,7.83405
5127,0.01927,7.83405
5128,0.01928,7.83405
5129,0.01929,7.83405
5130,0.0193,7.83405
5131,0.01931,7.83405
5132,0.01932,7.83405
5133,0.01933,7.83405
5134,0.01934,7.83405
5135,0.01935,7.83405
5136,0.01936,7.83405
5137,0.01937,7.83405
5138,0.01938,7.83405
5139,0.01939,7.83405
5140,0.0194,7.83405
5141,0.01941,7.83405
5142,0.01942,7.83405
5143,0.01943,7.83405
5144,0.01944,7.83405
5145,0.01945,7.83405
5146,0.01946,7.83405
5147,0.01947,7.83405
5148,0.01948,7.83405
5149,0.01949,7.83405
5150,0.0195,7.83405
5151,0.01951,7.83405
5152,0.01952,7.83405
5153,0.01953,7.83405
5154,0.01954,7.83405
5155,0.01955,7.83405
5156,0.01956,7.83405
5157,0.01957,7.83405
5158,0.01958,7.83405
5159,0.01959,7.83405
5160,0.0196,7.83405
5161,0.01961,7.83405
5162,0.01962,7.83405
5163,0.01963,7.83405
5164,0.01964,7.83405
5165,0.01965,7.83405
5166,0.01966,7.81734
5167,0.01967,7.83405
5168,0.01968,7.83405
5169,0.01969,7.83405
5170,0.0197,7.83405
5171,0.01971,7.83405
5172,0.01972,7.83405
5173,0.01973,7.81734
5174,0.01974,7.83405
5175,0.01975,7.83405
5176,0.01976,7.83405
5177,0.01977,7.83405
5178,0.01978,7.83405
5179,0.01979,7.83405
5180,0.0198,7.83405
5181,0.01981,7.83405
5182,0.01982,7.83405
5183,0.01983,7.81734
5184,0.01984,7.81734
5185,0.01985,7.81734
5186,0.01986,7.81734
5187,0.01987,7.80064
5188,0.01988,7.81734
5189,0.01989,7.80064
5190,0.0199,7.83405
5191,0.01991,7.80064
5192,0.01992,7.81734
5193,0.01993,7.81734
5194,0.01994,7.81734
5195,0.01995,7.81734
5196,0.01996,7.80064
5197,0.01997,7.83405
5198,0.01998,7.81734
5199,0.01999,7.81734
5200,0.02,7.81734
5201,0.02001,7.83405
5202,0.02002,7.80064
5203,0.02003,7.81734
5204,0.02004,7.81734
5205,0.02005,7.80064
5206,0.02006,7.81734
5207,0.02007,7.81734
5208,0.02008,7.80064
5209,0.02009,7.81734
5210,0.0201,7.81734
5211,0.02011,7.81734
5212,0.02012,7.81734
5213,0.02013,7.81734
5214,0.02014,7.81734
5215,0.02015,7.83405
5216,0.02016,7.83405
5217,0.02017,7.83405
5218,0.02018,7.81734
5219,0.02019,7.85075
5220,0.0202,7.85075
5221,0.02021,7.85075
5222,0.02022,7.85075
5223,0.02023,7.88416
5224,0.02024,7.88416
5225,0.02025,7.85075
5226,0.02026,7.90086
5227,0.02027,7.90086
5228,0.02028,7.88416
5229,0.02029,7.91756
5230,0.0203,7.91756
5231,0.02031,7.90086
5232,0.02032,7.93427
5233,0.02033,7.93427
5234,0.02034,7.93427
5235,0.02035,7.91756
5236,0.02036,7.95097
5237,0.02037,7.95097
5238,0.02038,7.95097
5239,0.02039,7.95097
5240,0.0204,7.96768
5241,0.02041,7.96768
5242,0.02042,7.96768
5243,0.02043,7.96768
5244,0.02044,7.98438
5245,0.02045,7.98438
5246,0.02046,7.96768
5247,0.02047,7.98438
5248,0.02048,7.98438
5249,0.02049,7.98438
5250,0.0205,7.98438
5251,0.02051,7.98438
5252,0.02052,7.98438
5253,0.02053,7.98438
5254,0.02054,7.98438
5255,0.02055,7.98438
5256,0.02056,7.98438
5257,0.02057,7.98438
5258,0.02058,7.98438
5259,0.02059,7.98438
5260,0.0206,7.98438
5261,0.02061,7.98438
5262,0.02062,7.98438
5263,0.02063,7.98438
5264,0.02064,7.98438
5265,0.02065,7.98438
5266,0.02066,7.98438
5267,0.02067,7.95097
5268,0.02068,7.98438
5269,0.02069,7.98438
5270,0.0207,7.96768
5271,0.02071,7.96768
5272,0.02072,7.95097
5273,0.02073,7.98438
5274,0.02074,7.98438
5275,0.02075,7.98438
5276,0.02076,7.98438
5277,0.02077,7.98438
5278,0.02078,7.96768
5279,0.02079,7.98438
5280,0.0208,7.98438
5281,0.02081,7.98438
5282,0.02082,7.98438
5283,0.02083,7.98438
5284,0.02084,7.98438
5285,0.02085,7.98438
5286,0.02086,7.98438
5287,0.02087,7.98438
5288,0.02088,7.98438
5289,0.02089,7.95097
5290,0.0209,7.98438
5291,0.02091,7.96768
5292,0.02092,7.96768
5293,0.02093,7.96768
5294,0.02094,7.96768
5295,0.02095,7.95097
5296,0.02096,7.98438
5297,0.02097,7.98438
5298,0.02098,7.98438
5299,0.02099,7.95097
5300,0.021,7.98438
5301,0.02101,7.96768
5302,0.02102,7.96768
5303,0.02103,7.96768
5304,0.02104,7.96768
5305,0.02105,7.96768
5306,0.02106,7.96768
5307,0.02107,7.96768
5308,0.02108,7.96768
5309,0.02109,7.96768
5310,0.0211,7.96768
5311,0.02111,7.98438
5312,0.02112,7.95097
5313,0.02113,7.96768
5314,0.02114,7.96768
5315,0.02115,7.96768
5316,0.02116,7.96768
5317,0.02117,7.96768
5318,0.02118,7.96768
5319,0.02119,7.96768
5320,0.0212,7.96768
5321,0.02121,7.96768
5322,0.02122,7.96768
5323,0.02123,7.96768
5324,0.02124,7.96768
5325,0.02125,7.96768
5326,0.02126,7.96768
5327,0.02127,7.96768
5328,0.02128,7.96768
5329,0.02129,7.96768
5330,0.0213,7.96768
5331,0.02131,7.96768
5332,0.02132,7.96768
5333,0.02133,7.96768
5334,0.02134,7.96768
5335,0.02135,7.96768
5336,0.02136,7.96768
5337,0.02137,7.96768
5338,0.02138,7.96768
5339,0.02139,7.96768
5340,0.0214,7.96768
5341,0.02141,7.96768
5342,0.02142,7.96768
5343,0.02143,7.96768
5344,0.02144,7.96768
5345,0.02145,7.96768
5346,0.02146,7.96768
5347,0.02147,7.96768
5348,0.02148,7.96768
5349,0.02149,7.96768
5350,0.0215,7.96768
5351,0.02151,7.96768
5352,0.02152,7.96768
5353,0.02153,7.96768
5354,0.02154,7.96768
5355,0.02155,7.96768
5356,0.02156,7.96768
5357,0.02157,7.96768
5358,0.02158,7.96768
5359,0.02159,7.96768
5360,0.0216,7.96768
5361,0.02161,7.96768
5362,0.02162,7.96768
5363,0.02163,7.96768
5364,0.02164,7.96768
5365,0.02165,7.96768
5366,0.02166,7.96768
5367,0.02167,7.96768
5368,0.02168,7.96768
5369,0.02169,7.96768
5370,0.0217,7.96768
5371,0.02171,7.96768
5372,0.02172,7.96768
5373,0.02173,7.96768
5374,0.02174,7.96768
5375,0.02175,7.96768
5376,0.02176,7.96768
5377,0.02177,7.96768
5378,0.02178,7.96768
5379,0.02179,7.96768
5380,0.0218,7.96768
5381,0.02181,7.96768
5382,0.02182,7.96768
5383,0.02183,7.96768
5384,0.02184,7.96768
5385,0.02185,7.96768
5386,0.02186,7.96768
5387,0.02187,7.96768
5388,0.02188,7.96768
5389,0.02189,7.96768
5390,0.0219,7.96768
5391,0.02191,7.96768
5392,0.02192,7.96768
5393,0.02193,7.96768
5394,0.02194,7.96768
5395,0.02195,7.96768
5396,0.02196,7.96768
5397,0.02197,7.96768
5398,0.02198,7.96768
5399,0.02199,7.96768
5400,0.022,7.96768
5401,0.02201,7.96768
5402,0.02202,7.96768
5403,0.02203,7.96768
5404,0.02204,7.96768
5405,0.02205,7.96768
5406,0.02206,7.96768
5407,0.02207,7.96768
5408,0.02208,7.96768
5409,0.02209,7.96768
5410,0.0221,7.96768
5411,0.02211,7.96768
5412,0.02212,7.96768
5413,0.02213,7.96768
5414,0.02214,7.96768
5415,0.02215,7.96768
5416,0.02216,7.96768
5417,0.02217,7.96768
5418,0.02218,7.96768
5419,0.02219,7.96768
5420,0.0222,7.96768
5421,0.02221,7.96768
5422,0.02222,7.96768
5423,0.02223,7.96768
5424,0.02224,7.96768
5425,0.02225,7.96768
5426,0.02226,7.96768
5427,0.02227,7.96768
5428,0.02228,7.96768
5429,0.02229,7.96768
5430,0.0223,7.96768
5431,0.02231,7.96768
5432,0.02232,7.96768
5433,0.02233,7.96768
5434,0.02234,7.96768
5435,0.02235,7.96768
5436,0.02236,7.96768
5437,0.02237,7.96768
5438,0.02238,7.96768
5439,0.02239,7.96768
5440,0.0224,7.96768
5441,0.02241,7.96768
5442,0.02242,7.96768
5443,0.02243,7.96768
5444,0.02244,7.96768
5445,0.02245,7.96768
5446,0.02246,7.96768
5447,0.02247,7.96768
5448,0.02248,7.96768
5449,0.02249,7.96768
5450,0.0225,7.96768
5451,0.02251,7.96768
5452,0.02252,7.96768
5453,0.02253,7.96768
5454,0.02254,7.96768
5455,0.02255,7.96768
5456,0.02256,7.96768
5457,0.02257,7.96768
5458,0.02258,7.96768
5459,0.02259,7.96768
5460,0.0226,7.96768
5461,0.02261,7.96768
5462,0.02262,7.96768
5463,0.02263,7.96768
5464,0.02264,7.96768
5465,0.02265,7.96768
5466,0.02266,7.96768
5467,0.02267,7.96768
5468,0.02268,7.96768
5469,0.02269,7.96768
5470,0.0227,7.96768
5471,0.02271,7.96768
5472,0.02272,7.96768
5473,0.02273,7.96768
5474,0.02274,7.96768
5475,0.02275,7.96768
5476,0.02276,7.96768
5477,0.02277,7.96768
5478,0.02278,7.96768
5479,0.02279,7.96768
5480,0.0228,7.96768
5481,0.02281,7.96768
5482,0.02282,7.96768
5483,0.02283,7.96768
5484,0.02284,7.96768
5485,0.02285,7.96768
5486,0.02286,7.96768
5487,0.02287,7.96768
5488,0.02288,7.96768
5489,0.02289,7.96768
5490,0.0229,7.96768
5491,0.02291,7.96768
5492,0.02292,7.96768
5493,0.02293,7.96768
5494,0.02294,7.96768
5495,0.02295,7.96768
5496,0.02296,7.96768
5497,0.02297,7.96768
5498,0.02298,7.96768
5499,0.02299,7.96768
5500,0.023,7.96768
5501,0.02301,7.96768
5502,0.02302,7.96768
5503,0.02303,7.96768
5504,0.02304,7.96768
5505,0.02305,7.96768
5506,0.02306,7.96768
5507,0.02307,7.96768
5508,0.02308,7.96768
5509,0.02309,7.96768
5510,0.0231,7.96768
5511,0.02311,7.96768
5512,0.02312,7.96768
5513,0.02313,7.96768
5514,0.02314,7.96768
5515,0.02315,7.96768
5516,0.02316,7.96768
5517,0.02317,7.96768
5518,0.02318,7.96768
5519,0.02319,7.96768
5520,0.0232,7.96768
5521,0.02321,7.96768
5522,0.02322,7.96768
5523,0.02323,7.95097
5524,0.02324,7.96768
5525,0.02325,7.96768
5526,0.02326,7.96768
5527,0.02327,7.96768
5528,0.02328,7.96768
5529,0.02329,7.93427
5530,0.0233,7.96768
5531,0.02331,7.95097
5532,0.02332,7.96768
5533,0.02333,7.96768
5534,0.02334,7.93427
5535,0.02335,7.96768
5536,0.02336,7.95097
5537,0.02337,7.96768
5538,0.02338,7.95097
5539,0.02339,7.96768
5540,0.0234,7.93427
5541,0.02341,7.95097
5542,0.02342,7.95097
5543,0.02343,7.95097
5544,0.02344,7.95097
5545,0.02345,7.93427
5546,0.02346,7.96768
5547,0.02347,7.96768
5548,0.02348,7.93427
5549,0.02349,7.96768
5550,0.0235,7.95097
5551,0.02351,7.95097
5552,0.02352,7.93427
5553,0.02353,7.96768
5554,0.02354,7.95097
5555,0.02355,7.95097
5556,0.02356,7.95097
5557,0.02357,7.95097
5558,0.02358,7.95097
5559,0.02359,7.95097
5560,0.0236,7.96768
5561,0.02361,7.93427
5562,0.02362,7.95097
5563,0.02363,7.95097
5564,0.02364,7.96768
5565,0.02365,7.93427
5566,0.02366,7.95097
5567,0.02367,7.95097
5568,0.02368,7.95097
5569,0.02369,7.95097
5570,0.0237,7.95097
5571,0.02371,7.95097
5572,0.02372,7.95097
5573,0.02373,7.95097
5574,0.02374,7.95097
5575,0.02375,7.95097
5576,0.02376,7.96768
5577,0.02377,7.93427
5578,0.02378,7.95097
5579,0.02379,7.95097
5580,0.0238,7.95097
5581,0.02381,7.95097
5582,0.02382,7.95097
5583,0.02383,7.95097
5584,0.02384,7.95097
5585,0.02385,7.95097
5586,0.02386,7.95097
5587,0.02387,7.95097
5588,0.02388,7.95097
5589,0.02389,7.95097
5590,0.0239,7.95097
5591,0.02391,7.95097
5592,0.02392,7.95097
5593,0.02393,7.95097
5594,0.02394,7.95097
5595,0.02395,7.95097
5596,0.02396,7.95097
5597,0.02397,7.95097
5598,0.02398,7.95097
5599,0.02399,7.95097
5600,0.024,7.95097
5601,0.02401,7.95097
5602,0.02402,7.95097
5603,0.02403,7.95097
5604,0.02404,7.95097
5605,0.02405,7.95097
5606,0.02406,7.95097
5607,0.02407,7.95097
5608,0.02408,7.95097
5609,0.02409,7.95097
5610,0.0241,7.95097
5611,0.02411,7.95097
5612,0.02412,7.95097
5613,0.02413,7.95097
5614,0.02414,7.95097
5615,0.02415,7.95097
5616,0.02416,7.95097
5617,0.02417,7.95097
5618,0.02418,7.95097
5619,0.02419,7.95097
5620,0.0242,7.95097
5621,0.02421,7.95097
5622,0.02422,7.95097
5623,0.02423,7.95097
5624,0.02424,7.95097
5625,0.02425,7.95097
5626,0.02426,7.95097
5627,0.02427,7.95097
5628,0.02428,7.95097
5629,0.02429,7.95097
5630,0.0243,7.95097
5631,0.02431,7.95097
5632,0.02432,7.95097
5633,0.02433,7.95097
5634,0.02434,7.95097
5635,0.02435,7.95097
5636,0.02436,7.95097
5637,0.02437,7.95097
5638,0.02438,7.95097
5639,0.02439,7.95097
5640,0.0244,7.95097
5641,0.02441,7.95097
5642,0.02442,7.95097
5643,0.02443,7.95097
5644,0.02444,7.95097
5645,0.02445,7.95097
5646,0.02446,7.95097
5647,0.02447,7.95097
5648,0.02448,7.95097
5649,0.02449,7.93427
5650,0.0245,7.90086
5651,0.02451,7.90086
5652,0.02452,7.90086
5653,0.02453,7.90086
5654,0.02454,7.90086
5655,0.02455,7.90086
5656,0.02456,7.90086
5657,0.02457,7.90086
5658,0.02458,7.90086
5659,0.02459,7.90086
5660,0.0246,7.90086
5661,0.02461,7.90086
5662,0.02462,7.90086
5663,0.02463,7.90086
5664,0.02464,7.90086
5665,0.02465,7.90086
5666,0.02466,7.90086
5667,0.02467,7.90086
5668,0.02468,7.90086
5669,0.02469,7.90086
5670,0.0247,7.90086
5671,0.02471,7.90086
5672,0.02472,7.90086
5673,0.02473,7.90086
5674,0.02474,7.90086
5675,0.02475,7.90086
5676,0.02476,7.90086
5677,0.02477,7.90086
5678,0.02478,7.90086
5679,0.02479,7.90086
5680,0.0248,7.90086
5681,0.02481,7.90086
5682,0.02482,7.90086
5683,0.02483,7.90086
5684,0.02484,7.90086
5685,0.02485,7.90086
5686,0.02486,7.90086
5687,0.02487,7.90086
5688,0.02488,7.90086
5689,0.02489,7.90086
5690,0.0249,7.90086
5691,0.02491,7.90086
5692,0.02492,7.90086
5693,0.02493,7.90086
5694,0.02494,7.90086
5695,0.02495,7.90086
5696,0.02496,7.90086
5697,0.02497,7.90086
5698,0.02498,7.90086
5699,0.02499,7.90086
5700,0.025,7.90086
5701,0.02501,7.90086
5702,0.02502,7.90086
5703,0.02503,7.90086
5704,0.02504,7.90086
5705,0.02505,7.90086
5706,0.02506,7.90086
5707,0.02507,7.90086
5708,0.02508,7.90086
5709,0.02509,7.90086
5710,0.0251,7.90086
5711,0.02511,7.90086
5712,0.02512,7.90086
5713,0.02513,7.90086
5714,0.02514,7.90086
5715,0.02515,7.90086
5716,0.02516,7.90086
5717,0.02517,7.90086
5718,0.02518,7.90086
5719,0.02519,7.90086
5720,0.0252,7.90086
5721,0.02521,7.90086
5722,0.02522,7.90086
5723,0.02523,7.90086
5724,0.02524,7.90086
5725,0.02525,7.90086
5726,0.02526,7.90086
5727,0.02527,7.90086
5728,0.02528,7.90086
5729,0.02529,7.90086
5730,0.0253,7.90086
5731,0.02531,7.90086
5732,0.02532,7.90086
5733,0.02533,7.90086
5734,0.02534,7.90086
5735,0.02535,7.90086
5736,0.02536,7.90086
5737,0.02537,7.90086
5738,0.02538,7.90086
5739,0.02539,7.90086
5740,0.0254,7.90086
5741,0.02541,7.90086
5742,0.02542,7.90086
5743,0.02543,7.90086
5744,0.02544,7.90086
5745,0.02545,7.90086
5746,0.02546,7.90086
5747,0.02547,7.90086
5748,0.02548,7.90086
5749,0.02549,7.90086
5750,0.0255,7.90086
5751,0.02551,7.90086
5752,0.02552,7.90086
5753,0.02553,7.90086
5754,0.02554,7.90086
5755,0.02555,7.90086
5756,0.02556,7.90086
5757,0.02557,7.90086
5758,0.02558,7.90086
5759,0.02559,7.90086
5760,0.0256,7.90086
5761,0.02561,7.90086
5762,0.02562,7.90086
5763,0.02563,7.90086
5764,0.02564,7.90086
5765,0.02565,7.90086
5766,0.02566,7.90086
5767,0.02567,7.90086
5768,0.02568,7.90086
5769,0.02569,7.90086
5770,0.0257,7.90086
5771,0.02571,7.90086
5772,0.02572,7.90086
5773,0.02573,7.90086
5774,0.02574,7.90086
5775,0.02575,7.90086
5776,0.02576,7.90086
5777,0.02577,7.90086
5778,0.02578,7.90086
5779,0.02579,7.90086
5780,0.0258,7.90086
5781,0.02581,7.90086
5782,0.02582,7.90086
5783,0.02583,7.90086
5784,0.02584,7.90086
5785,0.02585,7.90086
5786,0.02586,7.90086
5787,0.02587,7.90086
5788,0.02588,7.90086
5789,0.02589,7.90086
5790,0.0259,7.90086
5791,0.02591,7.90086
5792,0.02592,7.90086
5793,0.02593,7.90086
5794,0.02594,7.90086
5795,0.02595,7.90086
5796,0.02596,7.90086
5797,0.02597,7.90086
5798,0.02598,7.90086
5799,0.02599,7.90086
5800,0.026,7.90086
5801,0.02601,7.90086
5802,0.02602,7.90086
5803,0.02603,7.90086
5804,0.02604,7.90086
5805,0.02605,7.90086
5806,0.02606,7.90086
5807,0.02607,7.90086
5808,0.02608,7.90086
5809,0.02609,7.90086
5810,0.0261,7.90086
5811,0.02611,7.90086
5812,0.02612,7.90086
5813,0.02613,7.90086
5814,0.02614,7.90086
5815,0.02615,7.90086
5816,0.02616,7.90086
5817,0.02617,7.90086
5818,0.02618,7.90086
5819,0.02619,7.90086
5820,0.0262,7.90086
5821,0.02621,7.90086
5822,0.02622,7.90086
5823,0.02623,7.90086
5824,0.02624,7.90086
5825,0.02625,7.90086
5826,0.02626,7.90086
5827,0.02627,7.90086
5828,0.02628,7.90086
5829,0.02629,7.90086
5830,0.0263,7.90086
5831,0.02631,7.90086
5832,0.02632,7.90086
5833,0.02633,7.90086
5834,0.02634,7.90086
5835,0.02635,7.90086
5836,0.02636,7.90086
5837,0.02637,7.90086
5838,0.02638,7.90086
5839,0.02639,7.90086
5840,0.0264,7.90086
5841,0.02641,7.90086
5842,0.02642,7.90086
5843,0.02643,7.90086
5844,0.02644,7.90086
5845,0.02645,7.90086
5846,0.02646,7.90086
5847,0.02647,7.90086
5848,0.02648,7.90086
5849,0.02649,7.90086
5850,0.0265,7.90086
5851,0.02651,7.90086
5852,0.02652,7.90086
5853,0.02653,7.90086
5854,0.02654,7.90086
5855,0.02655,7.90086
5856,0.02656,7.90086
5857,0.02657,7.90086
5858,0.02658,7.90086
5859,0.02659,7.90086
5860,0.0266,7.90086
5861,0.02661,7.90086
5862,0.02662,7.90086
5863,0.02663,7.90086
5864,0.02664,7.90086
5865,0.02665,7.90086
5866,0.02666,7.90086
5867,0.02667,7.90086
5868,0.02668,7.90086
5869,0.02669,7.90086
5870,0.0267,7.90086
5871,0.02671,7.90086
5872,0.02672,7.90086
5873,0.02673,7.90086
5874,0.02674,7.90086
5875,0.02675,7.90086
5876,0.02676,7.90086
5877,0.02677,7.90086
5878,0.02678,7.90086
5879,0.02679,7.90086
5880,0.0268,7.90086
5881,0.02681,7.90086
5882,0.02682,7.90086
5883,0.02683,7.90086
5884,0.02684,7.90086
5885,0.02685,7.90086
5886,0.02686,7.90086
5887,0.02687,7.90086
5888,0.02688,7.90086
5889,0.02689,7.90086
5890,0.0269,7.85075
5891,0.02691,7.88416
5892,0.02692,7.88416
5893,0.02693,7.88416
5894,0.02694,7.90086
5895,0.02695,7.85075
5896,0.02696,7.88416
5897,0.02697,7.88416
5898,0.02698,7.88416
5899,0.02699,7.90086
5900,0.027,7.90086
5901,0.02701,7.90086
5902,0.02702,7.88416
5903,0.02703,7.88416
5904,0.02704,7.85075
5905,0.02705,7.90086
5906,0.02706,7.90086
5907,0.02707,7.90086
5908,0.02708,7.90086
5909,0.02709,7.85075
5910,0.0271,7.88416
5911,0.02711,7.88416
5912,0.02712,7.88416
5913,0.02713,7.90086
5914,0.02714,7.90086
5915,0.02715,7.88416
5916,0.02716,7.88416
5917,0.02717,7.88416
5918,0.02718,7.88416
5919,0.02719,7.88416
5920,0.0272,7.88416
5921,0.02721,7.88416
5922,0.02722,7.88416
5923,0.02723,7.88416
5924,0.02724,7.85075
5925,0.02725,7.90086
5926,0.02726,7.85075
5927,0.02727,7.88416
5928,0.02728,7.88416
5929,0.02729,7.88416
5930,0.0273,7.88416
5931,0.02731,7.88416
5932,0.02732,7.88416
5933,0.02733,7.88416
5934,0.02734,7.88416
5935,0.02735,7.88416
5936,0.02736,7.88416
5937,0.02737,7.88416
5938,0.02738,7.88416
5939,0.02739,7.88416
5940,0.0274,7.88416
5941,0.02741,7.88416
5942,0.02742,7.85075
5943,0.02743,7.90086
5944,0.02744,7.88416
5945,0.02745,7.88416
5946,0.02746,7.88416
5947,0.02747,7.88416
5948,0.02748,7.88416
5949,0.02749,7.88416
5950,0.0275,7.88416
5951,0.02751,7.88416
5952,0.02752,7.88416
5953,0.02753,7.88416
5954,0.02754,7.88416
5955,0.02755,7.88416
5956,0.02756,7.88416
5957,0.02757,7.88416
5958,0.02758,7.88416
5959,0.02759,7.88416
5960,0.0276,7.88416
5961,0.02761,7.88416
5962,0.02762,7.88416
5963,0.02763,7.88416
5964,0.02764,7.88416
5965,0.02765,7.88416
5966,0.02766,7.88416
5967,0.02767,7.88416
5968,0.02768,7.88416
5969,0.02769,7.88416
5970,0.0277,7.88416
5971,0.02771,7.88416
5972,0.02772,7.88416
5973,0.02773,7.88416
5974,0.02774,7.88416
5975,0.02775,7.88416
5976,0.02776,7.88416
5977,0.02777,7.88416
5978,0.02778,7.88416
5979,0.02779,7.88416
5980,0.0278,7.88416
5981,0.02781,7.88416
5982,0.02782,7.88416
5983,0.02783,7.88416
5984,0.02784,7.88416
5985,0.02785,7.88416
5986,0.02786,7.88416
5987,0.02787,7.88416
5988,0.02788,7.88416
5989,0.02789,7.88416
5990,0.0279,7.88416
5991,0.02791,7.88416
5992,0.02792,7.88416
5993,0.02793,7.88416
5994,0.02794,7.88416
5995,0.02795,7.88416
5996,0.02796,7.88416
5997,0.02797,7.88416
5998,0.02798,7.88416
5999,0.02799,7.88416
6000,0.028,7.88416
6001,0.02801,7.88416
6002,0.02802,7.88416
6003,0.02803,7.88416
6004,0.02804,7.88416
6005,0.02805,7.88416
6006,0.02806,7.88416
6007,0.02807,7.88416
6008,0.02808,7.88416
6009,0.02809,7.88416
6010,0.0281,7.88416
6011,0.02811,7.88416
6012,0.02812,7.88416
6013,0.02813,7.88416
6014,0.02814,7.88416
6015,0.02815,7.88416
6016,0.02816,7.88416
6017,0.02817,7.88416
6018,0.02818,7.88416
6019,0.02819,7.88416
6020,0.0282,7.88416
6021,0.02821,7.88416
6022,0.02822,7.88416
6023,0.02823,7.88416
6024,0.02824,7.88416
6025,0.02825,7.88416
6026,0.02826,7.88416
6027,0.02827,7.88416
6028,0.02828,7.88416
6029,0.02829,7.88416
6030,0.0283,7.88416
6031,0.02831,7.88416
6032,0.02832,7.88416
6033,0.02833,7.88416
6034,0.02834,7.88416
6035,0.02835,7.88416
6036,0.02836,7.88416
6037,0.02837,7.88416
6038,0.02838,7.88416
6039,0.02839,7.88416
6040,0.0284,7.88416
6041,0.02841,7.88416
6042,0.02842,7.88416
6043,0.02843,7.88416
6044,0.02844,7.88416
6045,0.02845,7.88416
6046,0.02846,7.88416
6047,0.02847,7.88416
6048,0.02848,7.88416
6049,0.02849,7.88416
6050,0.0285,7.88416
6051,0.02851,7.88416
6052,0.02852,7.88416
6053,0.02853,7.88416
6054,0.02854,7.88416
6055,0.02855,7.88416
6056,0.02856,7.88416
6057,0.02857,7.88416
6058,0.02858,7.88416
6059,0.02859,7.88416
6060,0.0286,7.88416
6061,0.02861,7.88416
6062,0.02862,7.88416
6063,0.02863,7.88416
6064,0.02864,7.88416
6065,0.02865,7.88416
6066,0.02866,7.88416
6067,0.02867,7.88416
6068,0.02868,7.88416
6069,0.02869,7.88416
6070,0.0287,7.88416
6071,0.02871,7.88416
6072,0.02872,7.88416
6073,0.02873,7.88416
6074,0.02874,7.88416
6075,0.02875,7.88416
6076,0.02876,7.88416
6077,0.02877,7.88416
6078,0.02878,7.88416
6079,0.02879,7.88416
6080,0.0288,7.88416
6081,0.02881,7.88416
6082,0.02882,7.88416
6083,0.02883,7.88416
6084,0.02884,7.88416
6085,0.02885,7.88416
6086,0.02886,7.88416
6087,0.02887,7.88416
6088,0.02888,7.88416
6089,0.02889,7.88416
6090,0.0289,7.88416
6091,0.02891,7.88416
6092,0.02892,7.88416
6093,0.02893,7.88416
6094,0.02894,7.88416
6095,0.02895,7.88416
6096,0.02896,7.88416
6097,0.02897,7.88416
6098,0.02898,7.88416
6099,0.02899,7.88416
6100,0.029,7.88416
6101,0.02901,7.88416
6102,0.02902,7.88416
6103,0.02903,7.88416
6104,0.02904,7.88416
6105,0.02905,7.88416
6106,0.02906,7.88416
6107,0.02907,7.88416
6108,0.02908,7.88416
6109,0.02909,7.88416
6110,0.0291,7.88416
6111,0.02911,7.88416
6112,0.02912,7.88416
6113,0.02913,7.88416
6114,0.02914,7.88416
6115,0.02915,7.88416
6116,0.02916,7.88416
6117,0.02917,7.88416
6118,0.02918,7.88416
6119,0.02919,7.85075
6120,0.0292,7.88416
6121,0.02921,7.88416
6122,0.02922,7.88416
6123,0.02923,7.88416
6124,0.02924,7.88416
6125,0.02925,7.88416
6126,0.02926,7.85075
6127,0.02927,7.83405
6128,0.02928,7.88416
6129,0.02929,7.88416
6130,0.0293,7.88416
6131,0.02931,7.88416
6132,0.02932,7.88416
6133,0.02933,7.83405
6134,0.02934,7.88416
6135,0.02935,7.85075
6136,0.02936,7.85075
6137,0.02937,7.88416
6138,0.02938,7.85075
6139,0.02939,7.88416
6140,0.0294,7.83405
6141,0.02941,7.83405
6142,0.02942,7.85075
6143,0.02943,7.88416
6144,0.02944,7.85075
6145,0.02945,7.88416
6146,0.02946,7.83405
6147,0.02947,7.83405
6148,0.02948,7.88416
6149,0.02949,7.83405
6150,0.0295,7.85075
6151,0.02951,7.85075
6152,0.02952,7.83405
6153,0.02953,7.88416
6154,0.02954,7.85075
6155,0.02955,7.85075
6156,0.02956,7.88416
6157,0.02957,7.83405
6158,0.02958,7.85075
6159,0.02959,7.88416
6160,0.0296,7.83405
6161,0.02961,7.85075
6162,0.02962,7.85075
6163,0.02963,7.88416
6164,0.02964,7.83405
6165,0.02965,7.85075
6166,0.02966,7.83405
6167,0.02967,7.88416
6168,0.02968,7.85075
6169,0.02969,7.88416
6170,0.0297,7.83405
6171,0.02971,7.88416
6172,0.02972,7.85075
6173,0.02973,7.85075
6174,0.02974,7.85075
6175,0.02975,7.85075
6176,0.02976,7.85075
6177,0.02977,7.85075
6178,0.02978,7.85075
6179,0.02979,7.85075
6180,0.0298,7.85075
6181,0.02981,7.85075
6182,0.02982,7.85075
6183,0.02983,7.85075
6184,0.02984,7.85075
6185,0.02985,7.85075
6186,0.02986,7.85075
6187,0.02987,7.85075
6188,0.02988,7.85075
6189,0.02989,7.85075
6190,0.0299,7.85075
6191,0.02991,7.85075
6192,0.02992,7.85075
6193,0.02993,7.85075
6194,0.02994,7.85075
6195,0.02995,7.85075
6196,0.02996,7.85075
6197,0.02997,7.85075
6198,0.02998,7.85075
6199,0.02999,7.85075
6200,0.03,7.85075
6201,0.03001,7.85075
6202,0.03002,7.85075
6203,0.03003,7.85075
6204,0.03004,7.85075
6205,0.03005,7.85075
6206,0.03006,7.85075
6207,0.03007,7.85075
6208,0.03008,7.85075
6209,0.03009,7.85075
6210,0.0301,7.85075
6211,0.03011,7.85075
6212,0.03012,7.85075
6213,0.03013,7.85075
6214,0.03014,7.85075
6215,0.03015,7.85075
6216,0.03016,7.85075
6217,0.03017,7.85075
6218,0.03018,7.85075
6219,0.03019,7.85075
6220,0.0302,7.85075
6221,0.03021,7.85075
6222,0.03022,7.85075
6223,0.03023,7.85075
6224,0.03024,7.85075
6225,0.03025,7.85075
6226,0.03026,7.85075
6227,0.03027,7.85075
6228,0.03028,7.85075
6229,0.03029,7.85075
6230,0.0303,7.85075
6231,0.03031,7.85075
6232,0.03032,7.85075
6233,0.03033,7.85075
6234,0.03034,7.85075
6235,0.03035,7.85075
6236,0.03036,7.85075
6237,0.03037,7.85075
6238,0.03038,7.85075
6239,0.03039,7.85075
6240,0.0304,7.85075
6241,0.03041,7.85075
6242,0.03042,7.85075
6243,0.03043,7.85075
6244,0.03044,7.85075
6245,0.03045,7.85075
6246,0.03046,7.85075
6247,0.03047,7.85075
6248,0.03048,7.85075
6249,0.03049,7.85075
6250,0.0305,7.85075
6251,0.03051,7.85075
6252,0.03052,7.85075
6253,0.03053,7.85075
6254,0.03054,7.85075
6255,0.03055,7.85075
6256,0.03056,7.85075
6257,0.03057,7.85075
6258,0.03058,7.85075
6259,0.03059,7.85075
6260,0.0306,7.85075
6261,0.03061,7.85075
6262,0.03062,7.85075
6263,0.03063,7.85075
6264,0.03064,7.85075
6265,0.03065,7.85075
6266,0.03066,7.85075
6267,0.03067,7.85075
6268,0.03068,7.85075
6269,0.03069,7.85075
6270,0.0307,7.85075
6271,0.03071,7.85075
6272,0.03072,7.85075
6273,0.03073,7.85075
6274,0.03074,7.85075
6275,0.03075,7.85075
6276,0.03076,7.85075
6277,0.03077,7.85075
6278,0.03078,7.85075
6279,0.03079,7.85075
6280,0.0308,7.85075
6281,0.03081,7.85075
6282,0.03082,7.85075
6283,0.03083,7.85075
6284,0.03084,7.85075
6285,0.03085,7.85075
6286,0.03086,7.85075
6287,0.03087,7.85075
6288,0.03088,7.85075
6289,0.03089,7.85075
6290,0.0309,7.85075
6291,0.03091,7.85075
6292,0.03092,7.85075
6293,0.03093,7.85075
6294,0.03094,7.85075
6295,0.03095,7.85075
6296,0.03096,7.85075
6297,0.03097,7.85075
6298,0.03098,7.85075
6299,0.03099,7.85075
6300,0.031,7.85075
6301,0.03101,7.85075
6302,0.03102,7.85075
6303,0.03103,7.85075
6304,0.03104,7.85075
6305,0.03105,7.85075
6306,0.03106,7.85075
6307,0.03107,7.85075
6308,0.03108,7.85075
6309,0.03109,7.85075
6310,0.0311,7.85075
6311,0.03111,7.85075
6312,0.03112,7.85075
6313,0.03113,7.85075
6314,0.03114,7.85075
6315,0.03115,7.85075
6316,0.03116,7.85075
6317,0.03117,7.85075
6318,0.03118,7.85075
6319,0.03119,7.85075
6320,0.0312,7.85075
6321,0.03121,7.85075
6322,0.03122,7.85075
6323,0.03123,7.85075
6324,0.03124,7.85075
6325,0.03125,7.85075
6326,0.03126,7.85075
6327,0.03127,7.85075
6328,0.03128,7.85075
6329,0.03129,7.85075
6330,0.0313,7.85075
6331,0.03131,7.85075
6332,0.03132,7.85075
6333,0.03133,7.85075
6334,0.03134,7.85075
6335,0.03135,7.85075
6336,0.03136,7.85075
6337,0.03137,7.85075
6338,0.03138,7.85075
6339,0.03139,7.85075
6340,0.0314,7.85075
6341,0.03141,7.85075
6342,0.03142,7.85075
6343,0.03143,7.85075
6344,0.03144,7.85075
6345,0.03145,7.85075
6346,0.03146,7.85075
6347,0.03147,7.85075
6348,0.03148,7.85075
6349,0.03149,7.85075
6350,0.0315,7.85075
6351,0.03151,7.85075
6352,0.03152,7.85075
6353,0.03153,7.85075
6354,0.03154,7.85075
6355,0.03155,7.85075
6356,0.03156,7.85075
6357,0.03157,7.85075
6358,0.03158,7.85075
6359,0.03159,7.85075
6360,0.0316,7.85075
6361,0.03161,7.85075
6362,0.03162,7.85075
6363,0.03163,7.85075
6364,0.03164,7.85075
6365,0.03165,7.85075
6366,0.03166,7.85075
6367,0.03167,7.85075
6368,0.03168,7.85075
6369,0.03169,7.85075
6370,0.0317,7.85075
6371,0.03171,7.85075
6372,0.03172,7.85075
6373,0.03173,7.85075
6374,0.03174,7.85075
6375,0.03175,7.85075
6376,0.03176,7.85075
6377,0.03177,7.85075
6378,0.03178,7.85075
6379,0.03179,7.85075
6380,0.0318,7.85075
6381,0.03181,7.85075
6382,0.03182,7.85075
6383,0.03183,7.85075
6384,0.03184,7.85075
6385,0.03185,7.85075
6386,0.03186,7.85075
6387,0.03187,7.85075
6388,0.03188,7.85075
6389,0.03189,7.85075
6390,0.0319,7.85075
6391,0.03191,7.85075
6392,0.03192,7.85075
6393,0.03193,7.85075
6394,0.03194,7.85075
6395,0.03195,7.85075
6396,0.03196,7.85075
6397,0.03197,7.85075
6398,0.03198,7.85075
6399,0.03199,7.85075
